#Measurement data
#2022-07-04 08:49:55

#Time (days)	Power (W)	Current (A)
0.00001341	0.140000	0.024100
0.00002690	0.140000	0.024100
0.00003837	0.140000	0.024100
0.00005036	0.140000	0.024100
0.00006220	0.140000	0.024100
0.00007355	0.140000	0.023900
0.00008579	0.140000	0.023900
0.00009704	0.140000	0.023900
0.00010845	0.210000	0.024100
0.00016659	0.210000	0.024100
0.00020390	0.140000	0.024200
0.00020572	0.140000	0.023900
0.00025980	3.790000	0.051800
0.00029649	3.790000	0.051800
0.00029828	3.860000	0.052000
0.00030639	3.860000	0.052000
0.00031831	4.220000	0.055500
0.00032966	4.220000	0.055500
0.00035338	4.220000	0.055500
0.00035530	4.140000	0.055500
0.00036476	4.140000	0.055500
0.00038825	4.220000	0.055500
0.00039084	4.220000	0.055500
0.00046912	4.220000	0.055500
0.00050622	13.940000	0.146700
0.00050904	19.020000	0.190100
0.00055103	17.230000	0.190100
0.00073383	17.160000	0.178000
0.00077120	33.330000	0.262700
0.00077287	33.330000	0.262700
0.00078264	33.330000	0.262700
0.00079416	33.330000	0.262700
0.00080569	15.090000	0.084400
0.00081740	15.090000	0.084400
0.00082891	15.090000	0.084400
0.00084049	15.020000	0.084000
0.00085225	15.020000	0.084000
0.00086376	15.020000	0.084000
0.00092181	15.020000	0.084200
0.00092363	15.020000	0.084300
0.00093340	15.020000	0.084300
0.00094567	15.020000	0.085300
0.00095720	15.020000	0.085300
0.00098067	15.020000	0.085300
0.00098249	14.940000	0.084100
0.00099229	14.940000	0.084100
0.00100387	14.940000	0.084100
0.00101531	15.020000	0.084400
0.00102686	15.020000	0.084400
0.00103851	15.020000	0.084400
0.00105049	14.940000	0.084000
0.00106203	14.940000	0.084000
0.00107388	14.940000	0.084000
0.00108544	14.940000	0.083900
0.00109750	14.940000	0.083900
0.00110853	14.940000	0.083900
0.00111998	14.940000	0.084000
0.00113166	14.940000	0.084000
0.00114343	14.940000	0.084000
0.00115505	14.870000	0.083900
0.00116653	14.870000	0.083900
0.00117802	14.870000	0.083900
0.00118972	14.870000	0.084100
0.00120110	14.870000	0.084100
0.00121311	14.870000	0.083900
0.00122477	14.870000	0.083900
0.00123907	14.870000	0.083900
0.00124800	14.870000	0.083900
0.00125990	14.870000	0.083800
0.00127437	14.870000	0.083800
0.00128442	14.870000	0.083800
0.00129718	14.870000	0.083800
0.00131719	14.870000	0.083800
0.00132598	14.800000	0.083800
0.00132942	14.800000	0.083800
0.00134280	14.800000	0.083800
0.00135391	14.800000	0.083500
0.00136442	14.800000	0.083500
0.00137560	14.800000	0.083500
0.00138742	14.800000	0.083600
0.00139869	14.800000	0.083600
0.00141042	14.800000	0.083600
0.00142197	14.800000	0.083600
0.00143352	14.800000	0.084000
0.00144506	14.800000	0.084000
0.00145687	14.800000	0.084000
0.00146858	14.800000	0.084000
0.00147995	14.800000	0.084000
0.00149172	14.800000	0.084000
0.00150324	14.800000	0.084000
0.00151513	14.800000	0.084000
0.00152664	14.800000	0.083500
0.00153811	14.800000	0.083500
0.00154992	14.800000	0.083500
0.00156157	14.800000	0.083600
0.00157293	14.800000	0.083600
0.00158469	14.800000	0.083600
0.00159624	14.800000	0.083600
0.00160808	14.800000	0.083200
0.00161993	14.800000	0.083200
0.00163118	14.800000	0.083200
0.00164285	14.870000	0.083400
0.00165454	14.870000	0.083400
0.00166628	14.870000	0.083400
0.00167784	14.870000	0.083100
0.00168935	14.870000	0.083100
0.00170127	14.870000	0.083100
0.00171277	14.870000	0.083100
0.00172458	14.870000	0.083100
0.00174775	19.090000	0.180600
0.00174993	19.090000	0.180600
0.00175927	19.090000	0.180600
0.00177073	19.090000	0.180600
0.00178234	25.100000	0.232600
0.00179392	25.100000	0.232600
0.00180586	25.100000	0.232600
0.00181735	38.260000	0.326600
0.00182900	38.260000	0.326600
0.00184059	1992.130000	0.326600
0.00185230	1992.130000	8.577900
0.00186404	1992.130000	8.577900
0.00187565	1980.820000	8.532800
0.00188730	1980.820000	8.532800
0.00189913	1980.820000	8.532800
0.00191057	1335.310000	6.967000
0.00192219	1335.310000	6.967000
0.00193374	1335.310000	6.967000
0.00194517	1335.310000	6.967000
0.00195694	34.610000	0.272200
0.00196877	34.610000	0.272200
0.00198049	34.610000	0.272200
0.00199178	39.260000	0.309700
0.00200344	39.260000	0.309700
0.00201499	36.190000	0.287800
0.00202647	36.190000	0.287800
0.00203825	36.190000	0.287800
0.00204995	38.050000	0.322400
0.00206160	38.050000	0.322400
0.00207375	38.050000	0.322400
0.00208493	38.050000	0.322400
0.00209674	38.050000	0.327300
0.00210852	38.050000	0.327300
0.00211936	38.050000	0.327300
0.00213196	38.050000	0.325600
0.00214252	38.050000	0.325600
0.00215483	38.050000	0.325600
0.00216578	37.900000	0.319300
0.00217725	37.900000	0.319300
0.00218883	37.900000	0.321600
0.00220074	37.900000	0.321600
0.00221196	37.900000	0.321600
0.00222358	37.900000	0.321600
0.00223513	37.900000	0.321600
0.00224686	37.900000	0.321600
0.00225873	37.900000	0.321600
0.00226990	37.900000	0.320600
0.00228139	37.900000	0.320600
0.00229330	37.900000	0.320600
0.00230480	38.120000	0.318500
0.00231861	38.120000	0.318500
0.00232786	38.120000	0.318500
0.00233965	37.620000	0.314900
0.00235083	37.620000	0.314900
0.00236250	37.690000	0.317300
0.00237398	37.690000	0.317300
0.00238557	37.690000	0.317300
0.00239736	37.760000	0.306900
0.00240885	37.760000	0.306900
0.00242019	37.760000	0.306900
0.00243194	37.760000	0.306900
0.00244403	38.120000	0.305000
0.00245487	38.120000	0.305000
0.00246692	38.120000	0.305000
0.00247800	41.770000	0.355800
0.00248983	41.770000	0.355800
0.00250236	41.840000	0.355800
0.00251334	41.840000	0.356000
0.00252487	41.840000	0.356000
0.00253660	41.840000	0.355600
0.00254844	41.840000	0.355600
0.00256000	41.840000	0.355600
0.00257204	41.770000	0.357500
0.00258339	41.770000	0.357500
0.00259532	41.770000	0.357500
0.00260707	41.980000	0.360800
0.00261859	41.980000	0.360800
0.00262991	41.980000	0.360800
0.00264142	41.980000	0.360800
0.00268885	40.760000	0.331700
0.00272613	39.830000	0.340900
0.00272819	39.830000	0.340900
0.00274263	39.830000	0.340900
0.00274642	45.630000	0.389000
0.00275844	45.630000	0.389000
0.00276965	45.630000	0.389000
0.00278100	45.630000	0.389000
0.00279245	45.630000	0.388800
0.00280410	45.630000	0.388800
0.00281573	45.630000	0.388800
0.00282726	45.770000	0.397100
0.00283889	45.770000	0.397100
0.00285293	46.270000	0.399100
0.00286206	46.270000	0.399100
0.00287485	46.270000	0.399100
0.00288685	46.060000	0.398700
0.00290183	46.060000	0.398700
0.00290861	46.060000	0.398700
0.00292046	45.990000	0.397900
0.00293236	45.990000	0.397900
0.00294427	45.990000	0.397900
0.00295655	45.990000	0.397900
0.00296714	45.990000	0.397900
0.00297922	45.990000	0.397900
0.00299017	45.990000	0.397900
0.00300197	45.840000	0.398400
0.00301353	45.840000	0.398400
0.00302506	45.770000	0.393900
0.00303703	45.770000	0.393900
0.00304819	45.770000	0.393900
0.00306046	42.700000	0.352300
0.00307149	42.700000	0.352300
0.00308297	42.700000	0.352300
0.00312956	33.610000	0.266900
0.00313101	39.620000	0.337400
0.00314194	39.620000	0.337400
0.00325740	39.620000	0.337400
0.00325903	41.480000	0.355000
0.00328058	41.480000	0.355800
0.00331700	41.480000	0.355800
0.00331917	41.480000	0.356900
0.00332646	41.480000	0.356900
0.00333797	36.190000	0.290100
0.00334932	36.190000	0.290100
0.00336120	36.190000	0.290100
0.00337293	35.330000	0.302700
0.00338424	35.330000	0.302700
0.00340772	37.900000	0.330100
0.00340939	37.900000	0.330100
0.00341927	37.900000	0.330100
0.00343231	37.900000	0.330100
0.00344209	37.760000	0.320300
0.00345376	37.760000	0.320300
0.00346561	37.760000	0.320300
0.00347693	37.760000	0.320300
0.00348843	37.620000	0.317000
0.00350007	37.620000	0.317000
0.00351197	37.620000	0.318000
0.00352332	37.620000	0.318000
0.00353486	37.620000	0.318000
0.00354657	37.690000	0.320600
0.00355831	37.690000	0.320600
0.00357016	37.690000	0.320600
0.00358155	37.690000	0.320900
0.00359322	37.690000	0.320900
0.00360463	37.690000	0.320900
0.00361640	37.690000	0.320200
0.00362779	37.690000	0.320200
0.00363946	37.690000	0.320200
0.00365091	37.690000	0.321700
0.00366351	37.690000	0.321700
0.00367598	37.690000	0.321700
0.00368633	37.690000	0.321700
0.00369748	37.690000	0.321700
0.00370935	37.690000	0.321700
0.00372065	37.900000	0.322900
0.00373240	37.900000	0.322900
0.00374360	37.900000	0.322900
0.00375515	35.040000	0.277900
0.00376675	35.040000	0.277900
0.00377844	35.040000	0.277900
0.00378992	35.040000	0.277900
0.00380154	39.480000	0.331800
0.00381301	39.480000	0.331800
0.00382469	41.690000	0.358100
0.00383619	41.690000	0.358100
0.00384802	41.690000	0.358100
0.00385957	41.690000	0.362000
0.00387102	41.690000	0.362000
0.00388251	41.690000	0.362000
0.00389412	41.840000	0.361300
0.00390589	41.840000	0.361300
0.00391763	41.840000	0.361300
0.00392889	41.840000	0.363600
0.00394044	41.840000	0.363600
0.00395220	41.840000	0.363600
0.00396391	41.840000	0.363600
0.00397534	42.480000	0.361400
0.00398709	42.480000	0.361400
0.00399847	37.980000	0.302900
0.00401006	37.980000	0.302900
0.00402150	37.980000	0.302900
0.00403323	34.760000	0.275800
0.00404472	34.760000	0.275800
0.00405725	34.760000	0.275800
0.00406786	45.840000	0.389300
0.00408019	45.840000	0.389300
0.00409101	45.840000	0.389300
0.00410289	45.560000	0.386400
0.00411412	45.560000	0.386400
0.00412576	45.560000	0.386400
0.00413793	45.700000	0.386400
0.00414906	45.700000	0.393200
0.00416051	45.700000	0.393200
0.00417211	45.630000	0.394500
0.00418358	45.630000	0.394500
0.00419532	45.630000	0.394500
0.00420671	45.630000	0.389800
0.00421831	45.630000	0.389800
0.00422987	45.630000	0.389800
0.00424149	45.770000	0.397800
0.00425322	45.770000	0.397800
0.00426471	45.770000	0.397800
0.00427616	45.770000	0.397800
0.00428791	45.770000	0.397100
0.00429929	45.770000	0.397100
0.00431087	45.630000	0.389000
0.00432264	45.630000	0.389000
0.00433400	45.630000	0.389000
0.00434580	45.560000	0.387200
0.00435727	45.560000	0.387200
0.00436884	45.560000	0.387200
0.00438016	45.990000	0.387700
0.00439211	45.990000	0.387700
0.00440347	45.990000	0.387700
0.00441502	45.990000	0.387700
0.00442672	45.990000	0.387700
0.00443825	45.990000	0.387700
0.00444979	45.990000	0.387700
0.00446214	38.550000	0.304000
0.00447345	38.550000	0.304000
0.00448514	41.550000	0.349400
0.00449626	41.550000	0.349400
0.00450808	41.550000	0.349400
0.00451946	41.550000	0.353700
0.00453104	41.550000	0.353700
0.00454282	41.550000	0.353700
0.00455420	41.480000	0.349900
0.00456573	41.480000	0.349900
0.00457750	41.480000	0.349900
0.00458902	41.690000	0.351500
0.00460102	41.690000	0.351500
0.00461199	41.690000	0.351500
0.00462353	41.690000	0.351500
0.00463517	41.550000	0.348800
0.00464689	41.550000	0.348800
0.00465826	39.260000	0.313100
0.00467003	39.260000	0.313100
0.00468139	39.260000	0.313100
0.00469330	35.330000	0.280300
0.00470470	35.330000	0.280300
0.00471620	35.330000	0.280300
0.00472797	37.400000	0.317700
0.00473936	37.400000	0.317700
0.00475111	37.400000	0.317700
0.00476255	37.400000	0.316300
0.00477416	37.400000	0.316300
0.00478580	37.400000	0.316300
0.00479741	37.400000	0.315900
0.00480895	37.400000	0.315900
0.00482076	37.400000	0.315900
0.00483209	37.400000	0.314900
0.00484381	37.400000	0.314900
0.00485536	37.400000	0.314900
0.00486703	37.620000	0.317300
0.00487855	37.620000	0.317300
0.00489023	37.620000	0.317300
0.00490164	37.620000	0.316900
0.00491348	37.620000	0.316900
0.00492507	37.620000	0.316900
0.00493656	37.550000	0.317100
0.00494811	37.550000	0.317100
0.00495953	37.550000	0.317100
0.00497122	37.690000	0.317000
0.00498275	37.690000	0.317000
0.00499435	37.690000	0.317000
0.00500602	37.620000	0.317000
0.00501750	37.620000	0.317000
0.00502909	37.620000	0.317000
0.00504067	37.620000	0.317000
0.00505215	37.620000	0.317000
0.00506381	37.620000	0.317000
0.00507588	36.260000	0.287300
0.00508750	36.260000	0.287300
0.00509881	36.260000	0.287300
0.00511041	36.260000	0.287300
0.00512159	37.830000	0.301400
0.00513341	37.830000	0.301400
0.00514536	37.830000	0.301400
0.00515663	37.830000	0.301400
0.00516807	37.830000	0.301400
0.00517973	41.410000	0.348500
0.00519127	41.410000	0.348500
0.00520303	41.410000	0.348500
0.00521436	41.410000	0.348600
0.00522612	41.410000	0.348600
0.00523772	41.410000	0.348600
0.00524924	41.550000	0.352600
0.00526096	41.550000	0.352600
0.00527306	41.550000	0.352600
0.00528481	41.550000	0.353700
0.00529583	41.550000	0.353700
0.00530802	41.550000	0.353700
0.00531890	40.690000	0.321100
0.00533056	40.690000	0.321100
0.00534199	40.690000	0.321100
0.00535344	34.610000	0.267100
0.00536510	34.610000	0.267100
0.00537661	34.610000	0.267100
0.00538793	31.970000	0.269500
0.00539971	31.970000	0.269500
0.00541138	31.970000	0.269500
0.00542316	21.600000	0.198100
0.00543512	21.600000	0.198100
0.00544644	21.600000	0.198100
0.00545818	21.600000	0.198600
0.00546981	21.600000	0.198600
0.00548126	21.600000	0.198600
0.00549265	21.520000	0.198600
0.00550411	21.520000	0.198600
0.00551580	21.520000	0.198600
0.00552711	21.450000	0.198000
0.00553876	21.450000	0.198000
0.00555028	21.450000	0.198000
0.00556225	21.450000	0.199400
0.00557348	21.450000	0.199400
0.00558545	21.450000	0.199400
0.00560839	21.450000	0.198600
0.00561006	21.450000	0.198600
0.00561992	21.450000	0.198600
0.00563140	21.450000	0.198700
0.00564300	21.450000	0.198700
0.00565478	21.450000	0.198700
0.00566634	21.380000	0.200700
0.00567796	21.380000	0.200700
0.00568950	21.380000	0.200700
0.00570119	21.380000	0.197500
0.00571264	21.380000	0.197500
0.00572448	21.380000	0.197500
0.00573588	21.450000	0.196500
0.00574762	21.450000	0.196500
0.00575905	21.450000	0.196500
0.00577066	21.380000	0.196200
0.00578229	21.380000	0.196200
0.00579394	21.380000	0.196200
0.00580547	21.380000	0.197500
0.00581682	21.380000	0.197500
0.00582856	21.380000	0.197500
0.00584029	21.310000	0.197600
0.00585178	21.310000	0.197600
0.00586336	21.310000	0.197600
0.00587498	21.310000	0.197600
0.00588650	21.310000	0.197600
0.00589809	21.310000	0.197600
0.00591041	21.310000	0.197700
0.00592109	21.310000	0.197700
0.00593271	21.310000	0.197700
0.00594404	21.310000	0.197700
0.00595633	21.310000	0.199200
0.00596743	21.310000	0.199200
0.00597894	21.380000	0.197300
0.00599117	21.380000	0.197300
0.00600229	21.380000	0.197300
0.00601378	21.380000	0.198400
0.00602519	21.380000	0.198400
0.00603758	21.380000	0.198400
0.00605046	21.310000	0.198100
0.00606161	21.310000	0.198100
0.00607325	21.310000	0.198100
0.00608414	24.030000	0.205500
0.00609600	24.030000	0.205500
0.00610619	25.320000	0.211500
0.00611795	25.320000	0.211500
0.00613062	25.320000	0.211500
0.00614138	25.320000	0.211500
0.00615282	26.390000	0.213600
0.00616438	26.390000	0.213600
0.00617558	26.390000	0.213600
0.00618741	26.100000	0.218600
0.00619903	26.100000	0.218600
0.00621036	26.100000	0.218600
0.00622205	37.550000	0.314200
0.00623362	37.550000	0.314200
0.00624529	37.550000	0.314200
0.00625700	37.620000	0.314600
0.00626853	37.620000	0.314600
0.00628039	37.620000	0.314600
0.00629183	37.830000	0.315300
0.00630333	37.830000	0.315300
0.00631486	37.830000	0.315300
0.00632679	37.690000	0.320900
0.00633818	37.690000	0.320900
0.00634941	37.690000	0.320900
0.00636087	37.470000	0.313900
0.00637273	37.470000	0.313900
0.00638426	37.470000	0.313900
0.00639586	37.400000	0.314900
0.00640757	37.400000	0.314900
0.00641921	37.400000	0.314900
0.00643078	37.260000	0.313700
0.00644243	37.260000	0.313700
0.00645435	37.260000	0.313700
0.00646553	37.470000	0.312100
0.00647706	37.470000	0.312100
0.00648841	37.470000	0.312100
0.00650063	37.400000	0.314200
0.00651176	37.400000	0.314200
0.00652348	37.400000	0.314200
0.00653499	37.400000	0.316800
0.00654662	37.400000	0.316800
0.00655882	37.400000	0.316800
0.00656986	35.260000	0.281500
0.00658133	35.260000	0.281500
0.00659285	35.260000	0.281500
0.00660462	35.260000	0.281500
0.00661633	35.260000	0.281500
0.00662797	35.260000	0.281500
0.00663968	41.270000	0.356100
0.00665101	41.270000	0.356100
0.00666249	41.270000	0.356100
0.00667416	41.690000	0.356700
0.00668560	41.690000	0.356700
0.00669715	41.690000	0.356700
0.00670892	41.620000	0.359500
0.00672025	41.620000	0.359500
0.00673199	41.620000	0.359500
0.00674355	41.550000	0.358600
0.00675502	41.550000	0.358600
0.00676667	42.120000	0.357100
0.00677818	42.120000	0.357100
0.00678992	42.120000	0.357100
0.00680162	42.120000	0.357100
0.00681303	38.760000	0.313400
0.00682485	38.760000	0.313400
0.00683648	38.760000	0.313400
0.00684817	33.610000	0.269400
0.00686021	33.610000	0.269400
0.00687122	33.610000	0.269400
0.00688323	45.990000	0.403100
0.00690369	45.990000	0.403100
0.00690568	45.990000	0.403100
0.00691736	45.840000	0.403400
0.00692888	45.840000	0.403400
0.00694063	45.840000	0.403400
0.00695196	45.770000	0.400300
0.00696361	45.770000	0.400300
0.00697554	45.770000	0.400300
0.00698675	45.770000	0.397600
0.00699867	45.770000	0.397600
0.00700995	45.770000	0.397600
0.00702150	45.700000	0.394900
0.00703301	45.700000	0.394900
0.00704466	45.700000	0.394900
0.00705626	45.630000	0.390100
0.00706764	45.630000	0.390100
0.00707929	45.490000	0.390600
0.00709103	45.490000	0.390600
0.00710238	45.490000	0.390600
0.00711424	45.490000	0.390600
0.00712609	45.560000	0.391400
0.00713744	45.560000	0.391400
0.00714895	45.560000	0.391400
0.00716057	45.490000	0.390900
0.00717226	45.490000	0.390900
0.00718368	45.490000	0.390900
0.00719539	45.270000	0.386500
0.00720677	45.270000	0.386500
0.00721860	45.270000	0.386500
0.00723017	39.120000	0.316100
0.00724163	39.120000	0.316100
0.00725331	35.900000	0.285500
0.00726515	35.900000	0.285500
0.00727644	35.900000	0.285500
0.00728814	35.900000	0.285500
0.00729981	41.190000	0.351700
0.00731134	41.190000	0.351700
0.00732303	41.190000	0.351700
0.00733444	41.190000	0.351700
0.00734597	41.190000	0.351700
0.00735786	41.190000	0.351700
0.00736912	41.410000	0.356600
0.00738052	41.410000	0.356600
0.00739233	41.410000	0.356600
0.00740387	41.270000	0.354300
0.00741564	41.270000	0.354300
0.00742769	41.270000	0.354300
0.00743891	41.190000	0.353800
0.00745105	41.190000	0.353800
0.00746207	41.190000	0.353800
0.00747353	39.690000	0.320900
0.00748525	39.690000	0.320900
0.00749653	39.690000	0.320900
0.00750822	34.970000	0.278000
0.00751980	34.970000	0.278000
0.00753150	34.970000	0.278000
0.00754289	36.760000	0.310700
0.00755440	36.760000	0.310700
0.00756609	37.120000	0.313500
0.00757793	37.120000	0.313500
0.00758907	37.120000	0.313500
0.00763552	37.120000	0.313500
0.00763814	37.190000	0.313400
0.00764793	37.050000	0.314200
0.00765951	37.050000	0.314200
0.00767228	37.050000	0.314200
0.00771656	37.050000	0.314200
0.00771839	36.970000	0.315700
0.00772811	36.970000	0.315700
0.00773984	37.400000	0.317200
0.00775126	37.400000	0.317200
0.00776308	37.400000	0.317200
0.00777508	37.400000	0.317200
0.00778613	37.190000	0.322500
0.00780964	37.190000	0.322500
0.00781192	37.190000	0.322500
0.00785597	37.260000	0.317000
0.00785779	37.190000	0.313600
0.00786781	37.190000	0.313600
0.00787968	37.190000	0.313600
0.00789116	36.900000	0.289700
0.00790331	36.900000	0.289700
0.00791466	36.830000	0.287600
0.00792609	36.830000	0.287600
0.00793743	36.830000	0.287600
0.00794904	36.830000	0.287600
0.00796039	40.480000	0.340100
0.00797201	40.480000	0.340100
0.00798377	40.480000	0.340100
0.00799515	41.120000	0.345500
0.00800704	41.120000	0.345500
0.00801825	41.120000	0.345500
0.00803006	41.050000	0.344100
0.00804138	41.050000	0.344100
0.00805333	41.050000	0.344100
0.00806487	41.050000	0.344100
0.00807637	41.050000	0.344100
0.00808806	41.050000	0.349500
0.00809955	41.050000	0.349500
0.00811116	41.050000	0.349500
0.00812265	41.050000	0.349500
0.00813424	39.910000	0.324200
0.00814582	39.910000	0.324200
0.00815764	39.910000	0.324200
0.00816910	34.040000	0.273400
0.00818068	34.040000	0.273400
0.00819209	34.040000	0.273400
0.00820400	44.630000	0.376300
0.00821594	44.630000	0.376300
0.00822699	45.060000	0.382500
0.00823892	45.060000	0.382500
0.00825000	45.060000	0.382500
0.00826200	45.200000	0.390000
0.00827317	45.200000	0.390000
0.00828481	45.200000	0.390000
0.00829669	45.200000	0.390000
0.00830788	45.490000	0.393400
0.00831971	45.490000	0.393400
0.00833152	45.490000	0.393400
0.00834260	45.410000	0.392700
0.00835454	45.410000	0.392700
0.00836616	45.410000	0.392700
0.00837763	45.410000	0.388300
0.00838911	45.410000	0.388300
0.00840104	45.560000	0.390100
0.00841227	45.560000	0.390100
0.00842380	45.560000	0.390100
0.00843624	45.560000	0.390100
0.00844759	45.630000	0.388600
0.00845946	45.630000	0.388600
0.00847066	45.630000	0.388600
0.00848235	45.270000	0.386400
0.00849385	45.270000	0.386400
0.00850487	45.270000	0.386400
0.00851660	44.910000	0.385700
0.00852817	44.910000	0.385700
0.00853973	44.910000	0.385700
0.00855137	42.770000	0.353100
0.00856281	42.770000	0.353100
0.00857436	33.180000	0.265000
0.00858597	33.180000	0.265000
0.00859759	33.180000	0.265000
0.00860926	33.180000	0.265000
0.00862115	37.980000	0.320400
0.00863272	37.980000	0.320400
0.00864440	37.980000	0.320400
0.00865589	40.840000	0.351900
0.00866742	40.840000	0.351900
0.00867905	40.840000	0.351900
0.00869062	40.910000	0.355200
0.00870245	40.910000	0.355200
0.00871400	40.910000	0.355200
0.00872536	40.910000	0.350100
0.00873701	40.910000	0.350100
0.00874847	40.840000	0.350400
0.00876021	40.840000	0.350400
0.00877167	40.840000	0.350400
0.00878343	40.840000	0.350400
0.00879497	40.550000	0.343600
0.00880667	40.550000	0.343600
0.00881818	40.550000	0.343600
0.00882949	35.690000	0.289400
0.00884105	35.690000	0.289400
0.00885272	35.690000	0.289400
0.00886434	35.110000	0.297400
0.00887637	35.110000	0.297400
0.00888772	36.900000	0.312900
0.00889927	36.900000	0.312900
0.00891069	36.900000	0.312900
0.00892214	36.830000	0.311100
0.00893358	36.830000	0.311100
0.00894528	36.830000	0.311100
0.00895684	36.830000	0.311100
0.00896839	36.830000	0.310100
0.00898000	36.830000	0.310100
0.00899157	36.830000	0.310100
0.00900314	36.970000	0.310200
0.00901478	36.970000	0.310200
0.00902644	36.970000	0.310200
0.00903775	36.970000	0.312000
0.00904940	36.970000	0.312000
0.00906103	36.830000	0.310300
0.00907269	36.830000	0.310300
0.00908405	36.830000	0.310300
0.00909573	36.760000	0.308900
0.00910756	36.760000	0.308900
0.00911891	36.760000	0.308900
0.00913046	36.760000	0.308900
0.00914193	36.760000	0.310200
0.00915369	36.760000	0.310200
0.00916514	36.760000	0.310200
0.00917682	36.760000	0.314100
0.00918836	36.760000	0.314100
0.00919992	36.760000	0.314100
0.00921170	37.050000	0.305000
0.00922306	37.050000	0.305000
0.00923508	34.330000	0.273700
0.00924631	34.330000	0.273700
0.00925824	34.330000	0.273700
0.00927008	38.690000	0.322600
0.00928112	38.690000	0.322600
0.00929250	38.690000	0.322600
0.00930420	38.690000	0.322600
0.00931581	40.840000	0.348100
0.00932725	40.840000	0.348100
0.00933896	40.840000	0.348100
0.00935050	40.910000	0.349400
0.00936192	40.910000	0.349400
0.00937405	40.760000	0.349000
0.00938507	40.760000	0.349000
0.00939657	40.760000	0.349000
0.00940834	40.690000	0.347900
0.00941990	40.690000	0.347900
0.00943141	40.690000	0.347900
0.00944307	40.690000	0.347900
0.00945456	41.120000	0.347300
0.00946610	41.120000	0.347300
0.00947785	41.120000	0.347300
0.00948956	37.190000	0.301800
0.00950109	37.190000	0.301800
0.00951257	37.190000	0.301800
0.00952413	32.970000	0.275100
0.00953584	32.970000	0.275100
0.00954735	33.830000	0.272400
0.00955898	33.830000	0.272400
0.00957096	33.830000	0.272400
0.00958209	37.400000	0.306000
0.00959367	37.400000	0.306000
0.00960539	37.400000	0.306000
0.00961685	37.400000	0.306000
0.00962853	35.110000	0.286400
0.00964010	35.110000	0.286400
0.00965147	35.110000	0.286400
0.00966306	37.050000	0.306500
0.00967475	37.050000	0.306500
0.00968626	37.050000	0.306500
0.00969767	37.050000	0.315000
0.00970959	37.050000	0.315000
0.00972090	2000.920000	8.600200
0.00973227	2000.920000	8.600200
0.00974412	2000.920000	8.600200
0.00975582	1989.690000	8.550500
0.00976734	1989.690000	8.550500
0.00977910	1989.690000	8.550500
0.00979054	1989.690000	8.550500
0.00980208	1990.620000	8.546600
0.00981380	1990.620000	8.546600
0.00982517	1990.620000	8.546600
0.00983661	1993.990000	8.551500
0.00984843	1993.990000	8.551500
0.00985964	1991.200000	8.551500
0.00987140	1991.200000	8.540700
0.00988306	1991.200000	8.540700
0.00989454	1989.760000	8.541300
0.00990618	1989.760000	8.541300
0.00991791	1989.760000	8.541300
0.00992956	1989.760000	8.541300
0.00994101	1984.690000	8.542000
0.00995256	1984.690000	8.542000
0.00996395	1984.690000	8.542000
0.00997554	1982.180000	8.537400
0.00998736	1982.180000	8.537400
0.00999890	1982.180000	8.537400
0.01001027	1982.540000	8.538400
0.01002189	1982.540000	8.538400
0.01003378	1984.540000	8.538700
0.01004588	1984.540000	8.538700
0.01005696	1984.540000	8.538700
0.01006892	1980.610000	8.517500
0.01007991	1980.610000	8.517500
0.01009179	1980.610000	8.517500
0.01010285	1980.610000	8.517500
0.01011439	1988.050000	8.538700
0.01012600	1988.050000	8.538700
0.01013756	1988.050000	8.538700
0.01014925	1989.690000	8.544000
0.01016081	1989.690000	8.544000
0.01017225	1989.690000	8.544000
0.01018399	1988.330000	8.541300
0.01019564	1988.330000	8.541300
0.01020714	1985.470000	8.534700
0.01021888	1985.470000	8.534700
0.01023022	1985.470000	8.534700
0.01024179	1982.110000	8.521200
0.01025340	1982.110000	8.521200
0.01026514	1982.110000	8.521200
0.01027641	1982.110000	8.521200
0.01028825	1987.830000	8.543300
0.01029998	1987.830000	8.543300
0.01031112	1987.830000	8.543300
0.01032340	1990.270000	8.556400
0.01033440	1990.270000	8.556400
0.01034613	1990.050000	8.556400
0.01035779	1990.050000	8.556200
0.01036924	1990.050000	8.556200
0.01038073	1989.760000	8.555400
0.01039237	1989.760000	8.555400
0.01040403	1989.760000	8.555400
0.01041525	1989.760000	8.555400
0.01042692	1983.400000	8.531500
0.01043868	1983.400000	8.531500
0.01045010	1983.400000	8.531500
0.01046166	1977.030000	8.512000
0.01047337	1977.030000	8.512000
0.01048491	1977.030000	8.512000
0.01049648	1979.610000	8.523600
0.01050821	1979.610000	8.523600
0.01051970	1984.540000	8.534200
0.01053159	1984.540000	8.534200
0.01054285	1984.540000	8.534200
0.01055455	1985.190000	8.536000
0.01056582	1985.190000	8.536000
0.01057752	1985.190000	8.536000
0.01058888	1985.190000	8.536000
0.01060046	1983.760000	8.533200
0.01061206	1983.760000	8.533200
0.01062385	1983.760000	8.533200
0.01063538	1985.120000	8.536200
0.01064728	1985.120000	8.536200
0.01065862	1985.120000	8.536200
0.01067015	1986.760000	8.539900
0.01068168	1986.760000	8.539900
0.01069343	1989.760000	8.546100
0.01070510	1989.760000	8.546100
0.01071638	1989.760000	8.546100
0.01072851	1995.340000	8.557900
0.01073976	1995.340000	8.557900
0.01075147	1995.340000	8.557900
0.01076309	1995.340000	8.557900
0.01077462	1990.770000	8.549100
0.01078676	1990.770000	8.549100
0.01079777	1990.770000	8.549100
0.01080924	1988.840000	8.544600
0.01082071	1988.840000	8.544600
0.01083274	1987.830000	8.544600
0.01084407	1987.830000	8.542900
0.01085566	1987.830000	8.542900
0.01086759	1988.760000	8.544800
0.01087936	1988.760000	8.544800
0.01089034	1988.760000	8.544800
0.01090205	1988.760000	8.544800
0.01091348	1988.190000	8.543700
0.01092537	1988.190000	8.543700
0.01093707	1988.190000	8.543700
0.01094846	1987.480000	8.541900
0.01096021	1987.480000	8.541900
0.01097149	1987.480000	8.541900
0.01098300	1988.840000	8.544800
0.01099473	1988.840000	8.544800
0.01100638	1986.980000	8.540800
0.01101793	1986.980000	8.540800
0.01102933	1986.980000	8.540800
0.01104080	1988.690000	8.544600
0.01105235	1988.690000	8.544600
0.01106403	1988.690000	8.544600
0.01107559	1988.690000	8.544600
0.01108727	1989.260000	8.545900
0.01109868	1989.260000	8.545900
0.01111025	1989.260000	8.545900
0.01112193	1989.550000	8.546600
0.01113356	1989.550000	8.546600
0.01114523	1989.550000	8.546600
0.01115670	1992.770000	8.553600
0.01116803	1992.770000	8.553600
0.01118017	1990.620000	8.550200
0.01119204	1990.620000	8.550200
0.01120345	1990.620000	8.550200
0.01121495	1991.700000	8.553300
0.01122693	1991.700000	8.553300
0.01123800	1991.700000	8.553300
0.01124972	1991.700000	8.553300
0.01126116	1983.470000	8.535200
0.01127279	1983.470000	8.535200
0.01128435	1983.470000	8.535200
0.01129603	1983.180000	8.534100
0.01130751	1983.180000	8.534100
0.01131914	1981.040000	8.534100
0.01133054	1981.040000	8.529500
0.01134213	1981.040000	8.529500
0.01135382	1976.960000	8.521700
0.01136573	1976.960000	8.521700
0.01137699	1976.960000	8.521700
0.01138873	1969.880000	8.506700
0.01140025	1969.880000	8.506700
0.01141183	1969.880000	8.506700
0.01142316	1969.880000	8.506700
0.01143501	1970.020000	8.507100
0.01144649	1970.020000	8.507100
0.01145807	1970.020000	8.507100
0.01146944	1966.020000	8.498100
0.01148117	1966.020000	8.498100
0.01149260	1968.450000	8.503300
0.01150454	1968.450000	8.503300
0.01151623	1968.450000	8.503300
0.01152740	1974.960000	8.517200
0.01153914	1974.960000	8.517200
0.01155069	1974.960000	8.517200
0.01156212	1974.960000	8.517200
0.01157372	1990.410000	8.549500
0.01158542	1990.410000	8.549500
0.01159686	1990.410000	8.549500
0.01160869	1989.980000	8.548400
0.01162005	1989.980000	8.548400
0.01163226	1989.980000	8.548400
0.01164358	1990.770000	8.550300
0.01165631	1990.770000	8.550300
0.01166725	1991.620000	8.552000
0.01167828	1991.620000	8.552000
0.01168976	1991.620000	8.552000
0.01170132	1994.270000	8.557600
0.01171296	1994.270000	8.557600
0.01172449	1994.270000	8.557600
0.01173616	1994.270000	8.557600
0.01174740	1992.910000	8.554700
0.01175914	1992.910000	8.554700
0.01177061	1992.910000	8.554700
0.01178249	1993.560000	8.556300
0.01179396	1993.560000	8.556300
0.01180525	1993.340000	8.556000
0.01181684	1993.340000	8.556000
0.01182838	1993.340000	8.556000
0.01184002	1990.690000	8.551600
0.01185176	1990.690000	8.551600
0.01186325	1990.690000	8.551600
0.01187476	1987.330000	8.536900
0.01188667	1987.330000	8.536900
0.01189841	1987.330000	8.536900
0.01191008	1987.330000	8.536900
0.01192153	1984.620000	8.537500
0.01193286	1984.620000	8.537500
0.01194431	1984.620000	8.537500
0.01195602	1995.490000	8.570600
0.01196778	1995.490000	8.570600
0.01197904	1993.840000	8.567700
0.01199087	1993.840000	8.567700
0.01200223	1993.840000	8.567700
0.01201397	1994.060000	8.568100
0.01202538	1994.060000	8.568100
0.01203703	1994.060000	8.568100
0.01204846	1994.060000	8.568100
0.01206003	1990.980000	8.561100
0.01207189	1990.980000	8.561100
0.01208345	1990.980000	8.561100
0.01209494	1989.260000	8.557800
0.01210667	1989.260000	8.557800
0.01211818	1989.260000	8.557800
0.01212983	1991.340000	8.562200
0.01214133	1991.340000	8.562200
0.01215293	1986.980000	8.552900
0.01216454	1986.980000	8.552900
0.01217640	1986.980000	8.552900
0.01218756	1983.040000	8.544500
0.01219921	1983.040000	8.544500
0.01221074	1983.040000	8.544500
0.01222243	1983.040000	8.544500
0.01223434	1975.460000	8.528100
0.01224591	1975.460000	8.528100
0.01225726	1975.460000	8.528100
0.01226860	1972.100000	8.522700
0.01228041	1972.100000	8.522700
0.01229184	1968.020000	8.503900
0.01230344	1968.020000	8.503900
0.01231508	1968.020000	8.503900
0.01232682	1965.660000	8.487500
0.01233830	1965.660000	8.487500
0.01234993	1965.660000	8.487500
0.01236170	1997.990000	8.586200
0.01237324	1997.990000	8.586200
0.01238476	1997.990000	8.586200
0.01239637	1997.990000	8.586200
0.01240803	1993.770000	8.577500
0.01241946	1993.770000	8.577500
0.01243212	1993.770000	8.577500
0.01244309	1997.780000	8.586100
0.01245502	1997.780000	8.586100
0.01246582	1996.560000	8.583500
0.01247741	1996.560000	8.583500
0.01248884	1996.560000	8.583500
0.01250078	1997.990000	8.586500
0.01251225	1997.990000	8.586500
0.01252361	1997.990000	8.586500
0.01253562	1996.420000	8.583200
0.01254725	1996.420000	8.583200
0.01255840	1996.420000	8.583200
0.01256987	1996.420000	8.583200
0.01258144	2001.420000	8.593200
0.01259322	2001.420000	8.593200
0.01260481	2001.420000	8.593200
0.01261613	2001.070000	8.592200
0.01262785	2001.070000	8.592200
0.01263939	2002.710000	8.595800
0.01265108	2002.710000	8.595800
0.01266249	2002.710000	8.595800
0.01267439	2001.500000	8.593300
0.01268574	2001.500000	8.593300
0.01269726	2001.500000	8.593300
0.01270896	2001.500000	8.593300
0.01272052	1991.840000	8.554400
0.01273209	1991.840000	8.554400
0.01274345	1991.840000	8.554400
0.01275525	1982.040000	8.532700
0.01276686	1982.040000	8.532700
0.01277867	1983.610000	8.545100
0.01279007	1983.610000	8.545100
0.01280177	1983.610000	8.545100
0.01281317	1985.040000	8.548400
0.01282493	1985.040000	8.548400
0.01283623	1985.040000	8.548400
0.01284832	1988.260000	8.555100
0.01285993	1988.260000	8.555100
0.01287127	1988.260000	8.555100
0.01288299	1988.260000	8.555100
0.01289412	1988.620000	8.556000
0.01290586	1988.620000	8.556000
0.01291750	1988.620000	8.556000
0.01292913	1992.200000	8.563700
0.01294057	1992.200000	8.563700
0.01295240	1997.630000	8.575200
0.01296387	1997.630000	8.575200
0.01297536	1997.630000	8.575200
0.01298720	2000.640000	8.581600
0.01299845	2000.640000	8.581600
0.01301017	2000.640000	8.581600
0.01302164	2004.360000	8.589300
0.01303333	2004.360000	8.589300
0.01304497	2004.360000	8.589300
0.01305635	2004.360000	8.589300
0.01306807	2004.570000	8.589600
0.01307961	2004.570000	8.589600
0.01309122	2004.570000	8.589600
0.01310281	2001.280000	8.583100
0.01311436	2001.280000	8.583100
0.01312606	1994.490000	8.567000
0.01313737	1994.490000	8.567000
0.01314890	1994.490000	8.567000
0.01316049	1981.750000	8.526000
0.01317226	1981.750000	8.526000
0.01318388	1981.750000	8.526000
0.01319551	1981.750000	8.526000
0.01320684	1976.390000	8.519800
0.01321873	1976.390000	8.519800
0.01323096	1976.390000	8.519800
0.01324196	1970.810000	8.508600
0.01325347	1970.810000	8.508600
0.01326498	1967.090000	8.500800
0.01327622	1967.090000	8.500800
0.01328795	1967.090000	8.500800
0.01329929	1968.310000	8.503400
0.01331112	1968.310000	8.503400
0.01332266	1968.310000	8.503400
0.01333416	1969.090000	8.505100
0.01334571	1969.090000	8.505100
0.01335762	1969.090000	8.505100
0.01336911	1969.090000	8.505100
0.01338078	1990.550000	8.550200
0.01339243	1990.550000	8.550200
0.01340363	1990.550000	8.550200
0.01341519	1989.260000	8.547400
0.01342688	1989.260000	8.547400
0.01343856	1988.690000	8.546300
0.01344990	1988.690000	8.546300
0.01346159	1988.690000	8.546300
0.01347319	1988.410000	8.545800
0.01348484	1988.410000	8.545800
0.01349646	1988.410000	8.545800
0.01350804	1984.190000	8.537200
0.01351977	1984.190000	8.537200
0.01353123	1984.190000	8.537200
0.01354286	1984.190000	8.537200
0.01355458	1985.120000	8.539200
0.01356608	1985.120000	8.539200
0.01357757	1985.120000	8.539200
0.01358909	1982.110000	8.532800
0.01360074	1982.110000	8.532800
0.01361241	1982.610000	8.534000
0.01362388	1982.610000	8.534000
0.01363546	1982.610000	8.534000
0.01364703	1983.540000	8.535700
0.01365878	1983.540000	8.535700
0.01367014	1983.540000	8.535700
0.01368229	1983.540000	8.535700
0.01369362	1980.610000	8.529700
0.01370505	1980.610000	8.529700
0.01371682	1980.610000	8.529700
0.01372804	1983.110000	8.535000
0.01373955	1983.110000	8.535000
0.01375117	1984.830000	8.538400
0.01376275	1984.830000	8.538400
0.01377427	1984.830000	8.538400
0.01378604	1985.620000	8.540100
0.01379758	1985.620000	8.540100
0.01380921	1985.620000	8.540100
0.01382078	1986.400000	8.541600
0.01383300	1986.400000	8.541600
0.01384435	1986.400000	8.541600
0.01385571	1986.400000	8.541600
0.01386740	1983.470000	8.535400
0.01387863	1983.470000	8.535400
0.01389032	1983.470000	8.535400
0.01390176	1983.400000	8.532900
0.01391338	1983.400000	8.532900
0.01392497	1983.690000	8.534800
0.01393649	1983.690000	8.534800
0.01394819	1983.690000	8.534800
0.01395993	1983.970000	8.547400
0.01397144	1983.970000	8.547400
0.01398286	1983.970000	8.547400
0.01399448	1977.610000	8.534000
0.01400604	1977.610000	8.534000
0.01401848	1977.610000	8.534000
0.01402965	1977.610000	8.534000
0.01404160	1975.890000	8.530500
0.01405256	1975.890000	8.530500
0.01406450	1975.890000	8.530500
0.01407537	1965.880000	8.509300
0.01408721	1965.880000	8.509300
0.01409870	1965.950000	8.509600
0.01411006	1965.950000	8.509600
0.01412178	1965.950000	8.509600
0.01413348	1972.030000	8.522700
0.01414505	1972.030000	8.522700
0.01415679	1972.030000	8.522700
0.01416816	1972.030000	8.522700
0.01417994	1968.880000	8.515900
0.01419197	1968.880000	8.515900
0.01420317	1968.880000	8.515900
0.01421484	1968.240000	8.514600
0.01422634	1968.240000	8.514600
0.01423767	1979.970000	8.539400
0.01424949	1979.970000	8.539400
0.01426115	1979.970000	8.539400
0.01427267	1982.400000	8.544700
0.01428414	1982.400000	8.544700
0.01429568	1982.400000	8.544700
0.01430725	1981.830000	8.539200
0.01431902	1981.830000	8.539200
0.01433046	1981.830000	8.539200
0.01434204	1981.830000	8.539200
0.01435366	1981.470000	8.521500
0.01436520	1981.470000	8.521500
0.01437676	1981.470000	8.521500
0.01438817	1995.560000	8.582000
0.01439976	1995.560000	8.582000
0.01441164	1995.270000	8.581700
0.01442315	1995.270000	8.581700
0.01443492	1995.270000	8.581700
0.01444638	1991.770000	8.574400
0.01445789	1991.770000	8.574400
0.01446948	1991.770000	8.574400
0.01448115	1989.980000	8.571100
0.01449277	1989.980000	8.571100
0.01450429	1989.980000	8.571100
0.01451572	1989.980000	8.571100
0.01452736	1988.260000	8.567400
0.01453902	1988.260000	8.567400
0.01455057	1988.260000	8.567400
0.01456211	1988.620000	8.568600
0.01457384	1988.620000	8.568600
0.01458529	1983.830000	8.558900
0.01459683	1983.830000	8.558900
0.01460832	1983.830000	8.558900
0.01461981	1984.900000	8.561300
0.01463153	1984.900000	8.561300
0.01464325	1984.900000	8.561300
0.01465483	1984.470000	8.560500
0.01466655	1984.470000	8.560500
0.01467813	1984.470000	8.560500
0.01468943	1984.470000	8.560500
0.01470117	1989.550000	8.571200
0.01471269	1989.550000	8.571200
0.01472441	1983.470000	8.544400
0.01473583	1983.470000	8.544400
0.01474756	1983.470000	8.544400
0.01475905	1980.820000	8.522100
0.01477082	1980.820000	8.522100
0.01478226	1980.820000	8.522100
0.01479368	1983.540000	8.543400
0.01480528	1983.540000	8.543400
0.01481742	1983.540000	8.543400
0.01482853	1983.540000	8.543400
0.01484009	1986.550000	8.554200
0.01485223	1986.550000	8.554200
0.01486392	1986.550000	8.554200
0.01487471	1987.830000	8.557200
0.01488648	1987.830000	8.557200
0.01489799	1983.110000	8.547600
0.01490964	1983.110000	8.547600
0.01492108	1983.110000	8.547600
0.01493258	1974.030000	8.528800
0.01494427	1974.030000	8.528800
0.01495588	1974.030000	8.528800
0.01496734	1971.030000	8.522300
0.01497904	1971.030000	8.522300
0.01499054	1971.030000	8.522300
0.01500208	1971.030000	8.522300
0.01501382	1961.940000	8.503100
0.01502520	1961.940000	8.503100
0.01503682	1963.730000	8.507100
0.01504884	1963.730000	8.507100
0.01506050	1963.730000	8.507100
0.01507170	1976.960000	8.535800
0.01508332	1976.960000	8.535800
0.01509500	1976.960000	8.535800
0.01510630	1979.680000	8.541600
0.01511800	1979.680000	8.541600
0.01512972	1979.680000	8.541600
0.01514125	1984.190000	8.552300
0.01515285	1984.190000	8.552300
0.01516419	1984.190000	8.552300
0.01517574	1984.190000	8.552300
0.01518722	1979.180000	8.523200
0.01519878	1979.180000	8.523200
0.01521044	1979.250000	8.529300
0.01522196	1979.250000	8.529300
0.01523354	1979.250000	8.529300
0.01524521	1983.760000	8.539600
0.01525672	1983.760000	8.539600
0.01526829	1983.760000	8.539600
0.01528000	1982.040000	8.535900
0.01529157	1982.040000	8.535900
0.01530295	1982.040000	8.535900
0.01531456	1982.040000	8.535900
0.01532610	1980.540000	8.532900
0.01533767	1980.540000	8.532900
0.01534925	1980.540000	8.532900
0.01536087	1974.100000	8.519700
0.01537263	1974.100000	8.519700
0.01538420	1970.100000	8.511400
0.01539559	1970.100000	8.511400
0.01540731	1970.100000	8.511400
0.01541902	1968.450000	8.507700
0.01543058	1968.450000	8.507700
0.01544207	1968.450000	8.507700
0.01545378	1968.740000	8.508400
0.01546520	1968.740000	8.508400
0.01547714	1968.740000	8.508400
0.01548909	1968.740000	8.508400
0.01550034	1979.610000	8.532100
0.01551186	1979.610000	8.532100
0.01552397	1971.310000	8.532100
0.01553530	1971.310000	8.492900
0.01554706	1971.310000	8.492900
0.01555863	1969.380000	8.481200
0.01556973	1969.380000	8.481200
0.01558164	1969.380000	8.481200
0.01559347	1963.010000	8.463900
0.01560464	1963.010000	8.463900
0.01561694	1963.010000	8.463900
0.01562869	1960.300000	8.453600
0.01564076	1960.300000	8.453600
0.01565179	1960.300000	8.453600
0.01566269	1960.300000	8.453600
0.01567434	1961.440000	8.453300
0.01568633	1961.440000	8.453300
0.01569781	1963.870000	8.458400
0.01570958	1963.870000	8.458400
0.01572078	1963.870000	8.458400
0.01573247	1969.240000	8.469800
0.01574397	1969.240000	8.469800
0.01575603	1969.240000	8.469800
0.01576701	1971.880000	8.474900
0.01577865	1971.880000	8.474900
0.01579024	1971.880000	8.474900
0.01580172	1972.100000	8.475300
0.01581332	1972.100000	8.475300
0.01582495	1972.100000	8.475300
0.01583657	1972.100000	8.475300
0.01584821	1970.670000	8.472200
0.01585992	1970.670000	8.472200
0.01587128	1967.160000	8.464500
0.01588278	1967.160000	8.464500
0.01589456	1967.160000	8.464500
0.01590610	1969.810000	8.474600
0.01591756	1969.810000	8.474600
0.01592918	1969.810000	8.474600
0.01594056	1970.880000	8.478500
0.01595241	1970.880000	8.478500
0.01596380	1970.880000	8.478500
0.01597541	1970.880000	8.478500
0.01598722	1973.390000	8.489800
0.01599874	1973.390000	8.489800
0.01601037	1970.880000	8.480100
0.01602182	1970.880000	8.480100
0.01603344	1970.880000	8.480100
0.01604506	1981.180000	8.532700
0.01605655	1981.180000	8.532700
0.01606830	1981.180000	8.532700
0.01607987	1984.540000	8.541100
0.01609133	1984.540000	8.541100
0.01610293	1984.540000	8.541100
0.01611446	1984.040000	8.540800
0.01612613	1984.040000	8.540800
0.01613757	1984.040000	8.540800
0.01614927	1984.040000	8.540800
0.01616078	1979.890000	8.532000
0.01617247	1979.890000	8.532000
0.01618394	1981.040000	8.534000
0.01619551	1981.040000	8.534000
0.01620698	1981.040000	8.534000
0.01621860	1982.760000	8.537600
0.01623025	1982.760000	8.537600
0.01624171	1982.760000	8.537600
0.01625344	1983.260000	8.538500
0.01626521	1983.260000	8.538500
0.01627648	1983.260000	8.538500
0.01628803	1977.890000	8.527100
0.01629987	1977.890000	8.527100
0.01631139	1977.890000	8.527100
0.01632299	1977.890000	8.527100
0.01633450	1977.030000	8.526000
0.01634612	1977.030000	8.526000
0.01635765	1969.520000	8.510300
0.01636926	1969.520000	8.510300
0.01638083	1969.520000	8.510300
0.01639249	1968.450000	8.507900
0.01640499	1968.450000	8.507900
0.01641586	1968.450000	8.507900
0.01642843	1971.810000	8.514900
0.01644024	1971.810000	8.514900
0.01645034	1971.810000	8.514900
0.01646191	1975.460000	8.522600
0.01647395	1975.460000	8.522600
0.01648507	1975.460000	8.522600
0.01649662	1981.970000	8.536100
0.01650816	1981.970000	8.536100
0.01651978	1981.970000	8.536100
0.01653137	1980.820000	8.534200
0.01654293	1980.820000	8.534200
0.01655456	1980.820000	8.534200
0.01656616	1983.260000	8.539000
0.01657770	1983.260000	8.539000
0.01658932	1983.260000	8.539000
0.01660072	1982.760000	8.538300
0.01661219	1982.760000	8.538300
0.01662404	1982.760000	8.538300
0.01663584	1982.760000	8.538300
0.01664721	1983.470000	8.539700
0.01665910	1983.470000	8.539700
0.01667054	1985.400000	8.543800
0.01668182	1985.400000	8.543800
0.01669354	1985.400000	8.543800
0.01670492	1983.540000	8.540400
0.01671646	1983.540000	8.540400
0.01672826	1983.540000	8.540400
0.01674001	1984.330000	8.540000
0.01675177	1984.330000	8.540000
0.01676317	1984.330000	8.540000
0.01677458	1982.110000	8.534500
0.01678640	1982.110000	8.534500
0.01679760	1982.110000	8.534500
0.01680958	1982.110000	8.534500
0.01682111	1990.410000	8.565300
0.01683266	1990.410000	8.565300
0.01684418	1984.190000	8.553000
0.01685582	1984.190000	8.553000
0.01686727	1984.190000	8.553000
0.01687881	1986.190000	8.556800
0.01689020	1986.190000	8.556800
0.01690196	1986.190000	8.556800
0.01691339	1988.330000	8.561400
0.01692513	1988.330000	8.561400
0.01693660	1988.330000	8.561400
0.01694814	1987.980000	8.560400
0.01695965	1987.980000	8.560400
0.01697127	1987.980000	8.560400
0.01698324	1987.980000	8.560400
0.01699465	1985.190000	8.554400
0.01700608	1985.190000	8.554400
0.01701780	1982.040000	8.548000
0.01702926	1982.040000	8.548000
0.01704071	1982.040000	8.548000
0.01705227	1981.110000	8.546000
0.01706399	1981.110000	8.546000
0.01707556	1981.110000	8.546000
0.01708699	1984.110000	8.552500
0.01709866	1984.110000	8.552500
0.01711025	1984.110000	8.552500
0.01712186	1984.110000	8.552500
0.01713325	1985.470000	8.556300
0.01714510	1985.470000	8.556300
0.01715674	1982.900000	8.546900
0.01716826	1982.900000	8.546900
0.01717978	1982.900000	8.546900
0.01719127	1978.890000	8.520000
0.01720356	1978.890000	8.520000
0.01721475	1978.890000	8.520000
0.01722660	1989.840000	8.574500
0.01723838	1989.840000	8.574500
0.01724939	1989.840000	8.574500
0.01726060	1991.050000	8.578200
0.01727231	1991.050000	8.578200
0.01728376	1991.050000	8.578200
0.01729557	1991.050000	8.578200
0.01730712	1986.620000	8.568900
0.01731899	1986.620000	8.568900
0.01733043	1989.480000	8.574500
0.01734192	1989.480000	8.574500
0.01735348	1989.480000	8.574500
0.01736505	1986.050000	8.567500
0.01737671	1986.050000	8.567500
0.01738810	1986.050000	8.567500
0.01739977	1986.620000	8.568900
0.01741159	1986.620000	8.568900
0.01742336	1986.620000	8.568900
0.01743480	1990.480000	8.577000
0.01744649	1990.480000	8.577000
0.01745786	1990.480000	8.577000
0.01746975	1994.410000	8.585300
0.01748084	1994.410000	8.585300
0.01749245	1994.410000	8.585300
0.01750402	1994.340000	8.585100
0.01751568	1994.340000	8.585100
0.01752720	1994.340000	8.585100
0.01753880	1994.920000	8.586000
0.01755036	1994.920000	8.586000
0.01756192	1994.920000	8.586000
0.01757352	1991.620000	8.568900
0.01758498	1991.620000	8.568900
0.01759674	1991.620000	8.568900
0.01760822	1991.620000	8.568900
0.01762071	1987.400000	8.547000
0.01763141	1987.400000	8.547000
0.01764301	1990.910000	8.560800
0.01765512	1990.910000	8.560800
0.01766623	1990.910000	8.560800
0.01767803	1993.840000	8.572700
0.01768948	1993.840000	8.572700
0.01770113	1993.840000	8.572700
0.01771269	1993.770000	8.572900
0.01772444	1993.770000	8.572900
0.01773561	1993.770000	8.572900
0.01774755	1993.700000	8.572700
0.01775898	1993.700000	8.572700
0.01777052	1993.700000	8.572700
0.01778208	1993.700000	8.572700
0.01779353	1993.630000	8.572500
0.01780521	1993.630000	8.572500
0.01781668	1992.700000	8.570500
0.01782825	1992.700000	8.570500
0.01783997	1992.700000	8.570500
0.01785135	1993.340000	8.572000
0.01786304	1993.340000	8.572000
0.01787478	1993.340000	8.572000
0.01788634	1991.200000	8.567400
0.01789771	1991.200000	8.567400
0.01790932	1991.200000	8.567400
0.01792104	322.360000	3.283600
0.01793277	322.360000	3.283600
0.01794409	322.360000	3.283600
0.01795571	49.630000	0.438000
0.01796718	49.630000	0.438000
0.01797888	49.630000	0.438000
0.01799035	34.970000	0.294300
0.01800235	34.970000	0.294300
0.01801407	34.970000	0.294300
0.01802581	35.040000	0.293600
0.01803766	35.040000	0.293600
0.01804869	35.040000	0.293600
0.01806042	48.630000	0.426200
0.01807185	48.630000	0.426200
0.01808331	48.630000	0.426200
0.01809497	44.910000	0.396400
0.01810630	44.910000	0.396400
0.01811807	44.910000	0.396400
0.01812972	42.410000	0.374600
0.01814142	42.410000	0.374600
0.01815278	42.410000	0.374600
0.01816440	35.610000	0.299500
0.01817588	35.610000	0.299500
0.01818762	35.610000	0.299500
0.01819897	55.070000	0.482400
0.01821076	55.070000	0.482400
0.01822222	55.070000	0.482400
0.01823381	53.070000	0.465500
0.01824543	53.070000	0.465500
0.01825722	53.070000	0.465500
0.01826885	53.070000	0.465500
0.01828013	35.760000	0.298800
0.01829199	35.760000	0.298800
0.01830352	33.760000	0.269900
0.01831501	33.760000	0.269900
0.01832656	33.760000	0.269900
0.01833822	44.700000	0.383000
0.01834971	44.700000	0.383000
0.01836130	44.700000	0.383000
0.01837278	32.040000	0.267200
0.01838440	32.040000	0.267200
0.01839610	32.040000	0.267200
0.01840759	38.550000	0.333700
0.01841919	38.550000	0.333700
0.01843076	38.550000	0.333700
0.01844231	43.700000	0.378200
0.01845391	43.700000	0.378200
0.01846543	43.700000	0.378200
0.01847701	41.270000	0.361100
0.01848874	41.270000	0.361100
0.01850051	41.270000	0.361100
0.01851211	32.110000	0.272000
0.01852383	32.110000	0.272000
0.01853514	32.110000	0.272000
0.01854674	31.970000	0.270700
0.01855840	31.970000	0.270700
0.01857015	31.970000	0.270700
0.01858166	49.780000	0.427500
0.01859322	49.780000	0.427500
0.01860478	49.780000	0.427500
0.01861625	34.760000	0.298800
0.01862807	34.760000	0.298800
0.01863947	34.760000	0.298800
0.01865093	31.970000	0.270400
0.01866277	31.970000	0.270400
0.01867420	31.970000	0.270400
0.01868579	36.330000	0.316600
0.01869727	36.330000	0.316600
0.01870905	36.330000	0.316600
0.01872060	49.490000	0.428400
0.01873193	49.490000	0.428400
0.01874358	49.490000	0.428400
0.01875539	49.490000	0.428400
0.01876682	46.340000	0.404500
0.01877836	46.340000	0.404500
0.01879045	31.900000	0.273100
0.01880186	31.900000	0.273100
0.01881309	31.900000	0.273100
0.01882465	31.970000	0.269300
0.01883681	31.970000	0.269300
0.01884796	31.970000	0.269300
0.01885961	46.560000	0.404300
0.01887103	46.560000	0.404300
0.01888252	46.560000	0.404300
0.01889400	38.330000	0.332400
0.01890563	38.330000	0.332400
0.01891727	38.330000	0.332400
0.01892880	35.040000	0.302200
0.01894043	35.040000	0.302200
0.01895214	35.040000	0.302200
0.01896376	32.180000	0.273300
0.01897525	32.180000	0.273300
0.01898671	32.180000	0.273300
0.01899823	48.920000	0.422100
0.01900972	48.920000	0.422100
0.01902130	48.920000	0.422100
0.01903291	32.610000	0.265500
0.01904444	32.610000	0.265500
0.01905610	32.610000	0.265500
0.01906799	30.750000	0.246100
0.01907947	30.750000	0.246100
0.01909093	30.750000	0.246100
0.01910257	37.330000	0.319500
0.01911420	37.330000	0.319500
0.01912580	37.330000	0.319500
0.01913735	40.260000	0.351200
0.01914917	40.260000	0.351200
0.01916053	40.260000	0.351200
0.01917205	37.050000	0.315200
0.01918353	37.050000	0.315200
0.01919523	37.050000	0.315200
0.01920689	55.140000	0.475000
0.01921838	55.140000	0.475000
0.01922993	55.140000	0.475000
0.01924142	54.500000	0.472500
0.01925308	54.500000	0.472500
0.01926480	54.500000	0.472500
0.01927630	35.110000	0.300100
0.01928791	35.110000	0.300100
0.01929947	35.110000	0.300100
0.01931139	39.190000	0.339200
0.01932264	39.190000	0.339200
0.01933434	39.190000	0.339200
0.01934575	42.550000	0.371500
0.01935744	42.550000	0.371500
0.01936896	42.550000	0.371500
0.01938065	45.270000	0.396500
0.01939227	45.270000	0.396500
0.01940382	35.190000	0.299400
0.01941551	35.190000	0.299400
0.01942693	35.190000	0.299400
0.01943831	35.190000	0.299400
0.01944988	33.400000	0.271700
0.01946157	33.400000	0.271700
0.01947324	33.400000	0.271700
0.01948475	32.540000	0.257800
0.01949659	32.540000	0.257800
0.01950789	32.540000	0.257800
0.01951943	31.110000	0.249600
0.01953112	31.110000	0.249600
0.01954250	31.110000	0.249600
0.01955417	40.910000	0.346000
0.01956605	40.910000	0.346000
0.01957722	53.570000	0.473700
0.01958947	53.570000	0.473700
0.01960148	53.570000	0.473700
0.01961229	53.570000	0.473700
0.01962456	53.210000	0.476100
0.01963642	53.210000	0.476100
0.01964699	53.210000	0.476100
0.01965854	50.420000	0.443100
0.01967017	50.420000	0.443100
0.01968190	50.420000	0.443100
0.01969322	39.980000	0.349400
0.01970485	39.980000	0.349400
0.01971641	39.980000	0.349400
0.01972791	55.930000	0.474900
0.01973975	55.930000	0.474900
0.01975104	55.930000	0.474900
0.01976270	59.150000	0.502600
0.01977416	59.150000	0.502600
0.01978584	59.150000	0.502600
0.01979763	41.190000	0.342700
0.01980889	41.190000	0.342700
0.01982051	41.190000	0.342700
0.01983215	44.910000	0.377100
0.01984361	44.910000	0.377100
0.01985530	44.910000	0.377100
0.01986703	42.550000	0.366700
0.01987865	42.550000	0.366700
0.01988990	42.550000	0.366700
0.01990163	42.550000	0.366700
0.01991324	42.550000	0.366700
0.01992500	42.550000	0.366700
0.01993630	34.110000	0.266600
0.01994837	34.110000	0.266600
0.01995965	34.110000	0.266600
0.01997100	40.690000	0.353800
0.01998257	40.690000	0.353800
0.01999412	40.690000	0.353800
0.02000581	51.560000	0.454800
0.02001797	51.560000	0.454800
0.02002902	51.560000	0.454800
0.02004044	50.850000	0.444000
0.02005204	50.850000	0.444000
0.02006359	35.970000	0.304200
0.02007554	35.970000	0.304200
0.02008694	35.970000	0.304200
0.02009845	35.970000	0.304200
0.02011060	48.130000	0.423900
0.02012145	48.130000	0.423900
0.02013325	48.130000	0.423900
0.02014539	55.000000	0.472800
0.02015620	55.000000	0.472800
0.02016807	55.000000	0.472800
0.02017970	41.690000	0.368900
0.02019088	41.690000	0.368900
0.02020282	41.690000	0.368900
0.02021396	35.900000	0.305200
0.02022579	35.900000	0.305200
0.02023718	35.900000	0.305200
0.02024888	35.970000	0.301000
0.02026056	35.970000	0.301000
0.02027188	35.970000	0.301000
0.02028343	56.000000	0.485900
0.02029507	56.000000	0.485900
0.02030667	56.000000	0.485900
0.02031837	35.690000	0.290200
0.02032975	35.690000	0.290200
0.02034128	35.690000	0.290200
0.02035310	33.830000	0.281800
0.02036457	33.830000	0.281800
0.02037615	33.830000	0.281800
0.02038825	36.760000	0.320200
0.02039943	36.760000	0.320200
0.02041067	36.760000	0.320200
0.02042243	49.420000	0.430300
0.02043432	49.420000	0.430300
0.02044559	49.420000	0.430300
0.02045692	44.130000	0.384200
0.02046870	44.130000	0.384200
0.02048024	44.130000	0.384200
0.02049189	32.610000	0.273500
0.02050356	32.610000	0.273500
0.02051516	32.610000	0.273500
0.02052687	45.270000	0.402100
0.02053848	45.270000	0.402100
0.02055013	46.420000	0.401200
0.02056189	46.420000	0.401200
0.02057360	46.420000	0.401200
0.02058516	46.420000	0.401200
0.02059678	41.840000	0.363400
0.02060825	41.840000	0.363400
0.02061970	41.840000	0.363400
0.02063144	41.840000	0.363400
0.02064326	41.840000	0.363400
0.02065559	41.840000	0.363400
0.02066646	33.400000	0.284100
0.02067829	33.400000	0.284100
0.02068950	33.400000	0.284100
0.02070134	50.420000	0.447700
0.02071245	50.420000	0.447700
0.02072398	32.470000	0.277600
0.02074884	32.470000	0.277600
0.02075108	32.470000	0.277600
0.02075903	32.470000	0.277600
0.02077190	32.470000	0.273700
0.02078233	32.470000	0.273700
0.02079375	32.470000	0.273700
0.02080491	38.260000	0.336500
0.02081715	38.260000	0.336500
0.02082932	38.260000	0.336500
0.02084229	45.840000	0.406800
0.02085155	45.840000	0.406800
0.02086378	44.630000	0.406800
0.02087676	44.630000	0.385700
0.02088626	44.630000	0.385700
0.02090001	32.470000	0.274100
0.02090946	32.470000	0.274100
0.02092124	32.470000	0.274100
0.02093333	32.470000	0.274100
0.02094429	48.270000	0.429000
0.02095637	48.270000	0.429000
0.02096860	48.270000	0.429000
0.02098045	46.270000	0.407800
0.02099108	46.270000	0.407800
0.02100259	46.270000	0.407800
0.02101484	38.830000	0.339600
0.02102618	38.830000	0.339600
0.02103794	32.900000	0.276600
0.02104970	32.900000	0.276600
0.02106227	32.900000	0.276600
0.02107251	32.900000	0.276600
0.02108461	32.400000	0.253800
0.02109567	32.400000	0.253800
0.02110740	32.400000	0.253800
0.02112016	34.330000	0.270400
0.02112931	34.330000	0.270400
0.02114199	34.330000	0.270400
0.02115427	53.280000	0.475500
0.02116502	53.280000	0.475500
0.02117679	53.280000	0.475500
0.02118872	54.640000	0.484300
0.02120016	54.640000	0.484300
0.02121277	41.190000	0.362200
0.02146566	41.190000	0.362200
0.02219972	32.250000	0.259800
0.02220644	32.250000	0.259800
0.02221819	38.050000	0.324200
0.02222977	38.050000	0.324200
0.02224135	38.050000	0.324200
0.02225267	38.050000	0.324200
0.02226435	37.400000	0.315600
0.02227578	37.400000	0.315600
0.02228742	37.400000	0.315600
0.02229920	36.540000	0.306700
0.02231074	36.540000	0.306700
0.02232219	36.540000	0.306700
0.02233369	54.930000	0.484800
0.02234553	54.930000	0.484800
0.02235688	35.970000	0.484800
0.02236847	35.970000	0.306800
0.02238009	35.970000	0.306800
0.02239157	35.970000	0.305800
0.02240321	35.970000	0.305800
0.02241469	35.970000	0.305800
0.02242637	35.970000	0.305800
0.02243785	43.270000	0.388200
0.02244940	43.270000	0.388200
0.02246101	43.270000	0.388200
0.02247274	50.990000	0.458200
0.02248421	50.990000	0.458200
0.02249572	50.990000	0.458200
0.02250740	46.130000	0.412000
0.02251894	46.130000	0.412000
0.02253058	36.040000	0.305100
0.02254211	36.040000	0.305100
0.02255390	36.040000	0.305100
0.02256525	36.040000	0.305100
0.02257690	34.260000	0.277600
0.02258859	34.260000	0.277600
0.02259993	34.260000	0.277600
0.02261163	32.400000	0.254300
0.02262333	32.400000	0.254300
0.02263475	32.400000	0.254300
0.02264657	41.550000	0.362800
0.02265826	41.550000	0.362800
0.02266980	41.550000	0.362800
0.02268124	38.830000	0.338200
0.02269296	38.830000	0.338200
0.02270455	32.830000	0.277300
0.02271612	32.830000	0.277300
0.02272772	32.830000	0.277300
0.02273925	32.830000	0.277300
0.02275079	50.560000	0.437300
0.02276313	50.560000	0.437300
0.02277418	50.560000	0.437300
0.02278615	50.780000	0.441900
0.02279797	50.780000	0.441900
0.02280889	50.780000	0.441900
0.02282017	50.780000	0.441900
0.02283186	50.780000	0.441900
0.02284332	50.780000	0.441900
0.02285493	38.900000	0.344600
0.02286647	38.900000	0.344600
0.02287800	40.340000	0.356600
0.02288963	40.340000	0.356600
0.02290132	40.340000	0.356600
0.02291291	40.340000	0.356600
0.02292450	42.480000	0.376000
0.02293633	42.480000	0.376000
0.02294757	42.480000	0.376000
0.02295922	32.680000	0.279100
0.02297100	32.680000	0.279100
0.02298242	32.680000	0.279100
0.02299417	32.680000	0.278300
0.02300567	32.680000	0.278300
0.02301715	45.700000	0.278300
0.02302868	45.700000	0.412500
0.02304037	45.700000	0.412500
0.02305207	35.830000	0.317500
0.02306345	35.830000	0.317500
0.02307522	35.830000	0.317500
0.02308674	35.830000	0.317500
0.02309822	35.470000	0.313300
0.02310980	35.470000	0.313300
0.02312130	35.470000	0.313300
0.02313286	42.550000	0.324100
0.02314450	42.550000	0.324100
0.02315604	42.550000	0.324100
0.02316771	56.210000	0.452300
0.02317916	56.210000	0.452300
0.02319079	50.420000	0.442800
0.02320230	50.420000	0.442800
0.02321389	50.420000	0.442800
0.02322553	32.470000	0.276000
0.02323700	32.470000	0.276000
0.02324858	32.470000	0.276000
0.02326025	32.470000	0.276000
0.02327199	40.410000	0.359600
0.02328329	40.410000	0.359600
0.02329516	40.410000	0.359600
0.02330675	41.910000	0.371700
0.02331833	41.910000	0.371700
0.02333007	41.910000	0.371700
0.02334133	45.130000	0.393500
0.02335301	45.130000	0.393500
0.02336459	32.540000	0.276200
0.02337619	32.540000	0.276200
0.02338779	32.540000	0.276200
0.02339933	32.540000	0.276200
0.02341086	32.540000	0.277200
0.02342242	32.540000	0.277200
0.02343397	32.540000	0.277200
0.02344566	45.630000	0.401800
0.02345716	45.630000	0.401800
0.02346888	45.630000	0.401800
0.02348027	34.040000	0.293300
0.02349185	34.040000	0.293300
0.02350346	34.040000	0.293300
0.02351515	33.470000	0.284900
0.02352656	33.470000	0.284900
0.02353813	33.470000	0.284900
0.02354969	33.470000	0.284900
0.02356142	33.470000	0.284900
0.02357296	33.470000	0.284900
0.02358447	50.130000	0.443100
0.02359620	50.130000	0.443100
0.02360757	50.130000	0.443100
0.02361942	45.200000	0.396000
0.02363081	45.200000	0.396000
0.02364230	45.200000	0.396000
0.02365402	32.540000	0.275300
0.02366543	32.540000	0.275300
0.02367694	32.540000	0.274800
0.02368861	32.540000	0.274800
0.02370051	32.540000	0.274800
0.02371181	43.910000	0.388400
0.02372350	43.910000	0.388400
0.02373501	43.910000	0.388400
0.02374681	43.910000	0.388400
0.02375808	43.410000	0.383100
0.02376984	43.410000	0.383100
0.02378127	43.410000	0.383100
0.02379274	39.620000	0.346700
0.02380439	39.620000	0.346700
0.02381583	39.620000	0.346700
0.02382758	32.470000	0.273300
0.02383918	32.470000	0.273300
0.02385086	49.200000	0.430400
0.02386225	49.200000	0.430400
0.02387383	49.200000	0.430400
0.02388564	49.920000	0.435100
0.02389703	49.920000	0.435100
0.02390867	49.920000	0.435100
0.02392014	49.920000	0.435100
0.02393166	33.400000	0.285700
0.02394317	33.400000	0.285700
0.02395491	33.400000	0.285700
0.02400277	37.470000	0.328500
0.02400477	36.620000	0.319600
0.02401304	36.620000	0.319600
0.02402477	46.920000	0.408500
0.02403652	46.920000	0.408500
0.02405049	46.920000	0.408500
0.02406020	46.920000	0.408500
0.02407294	32.680000	0.275800
0.02408981	32.680000	0.275800
0.02409461	32.680000	0.275800
0.02410675	32.610000	0.273700
0.02411856	32.610000	0.273700
0.02413058	32.610000	0.273700
0.02414144	43.200000	0.379100
0.02415189	43.200000	0.379100
0.02416701	41.770000	0.368400
0.02417514	41.770000	0.368400
0.02418659	41.770000	0.368400
0.02419834	38.050000	0.338400
0.02420997	38.050000	0.338400
0.02422166	38.050000	0.338400
0.02423353	38.050000	0.338400
0.02424476	33.110000	0.285200
0.02425605	33.110000	0.285200
0.02426769	33.110000	0.285200
0.02427939	33.110000	0.285200
0.02429084	33.110000	0.285200
0.02430272	33.110000	0.285200
0.02431418	50.210000	0.440300
0.02432635	50.210000	0.440300
0.02433848	32.540000	0.277400
0.02434885	32.540000	0.277400
0.02436492	32.540000	0.277400
0.02437208	41.840000	0.370100
0.02438376	41.840000	0.370100
0.02439583	41.840000	0.370100
0.02440693	41.840000	0.370100
0.02441925	38.690000	0.340400
0.02442980	38.690000	0.340400
0.02444167	38.690000	0.340400
0.02445374	44.910000	0.398900
0.02446498	44.910000	0.398900
0.02451241	44.910000	0.398900
0.02452662	32.610000	0.278600
0.02452899	32.610000	0.278600
0.02453471	32.610000	0.278600
0.02454633	45.410000	0.397700
0.02455815	45.410000	0.397700
0.02456939	45.410000	0.397700
0.02458137	45.410000	0.397700
0.02459329	38.190000	0.335500
0.02460591	38.190000	0.335500
0.02461605	38.190000	0.335500
0.02462806	34.610000	0.298200
0.02463940	34.610000	0.298200
0.02465112	34.760000	0.298200
0.02466271	34.760000	0.299900
0.02467488	34.760000	0.299900
0.02469192	50.560000	0.439700
0.02469763	50.560000	0.439700
0.02470919	50.560000	0.439700
0.02472066	49.630000	0.430300
0.02473284	49.630000	0.430300
0.02474416	49.630000	0.430300
0.02475537	49.630000	0.430300
0.02476712	32.540000	0.278900
0.02477936	32.540000	0.278900
0.02479057	32.540000	0.278900
0.02480222	39.330000	0.349500
0.02482060	39.330000	0.349500
0.02486066	40.340000	0.355700
0.02486248	42.980000	0.378400
0.02487292	42.980000	0.378400
0.02488657	42.980000	0.378400
0.02489582	39.120000	0.343700
0.02494250	39.120000	0.343700
0.02494428	32.830000	0.279600
0.02495399	32.830000	0.279600
0.02496497	32.830000	0.279600
0.02497668	48.200000	0.420600
0.02498778	48.200000	0.420600
0.02499959	48.200000	0.420600
0.02501089	48.200000	0.420600
0.02502329	48.200000	0.420600
0.02503461	34.400000	0.299300
0.02504604	34.400000	0.299300
0.02505753	34.400000	0.299300
0.02506927	36.540000	0.319000
0.02508102	36.540000	0.319000
0.02509272	36.540000	0.319000
0.02510449	36.540000	0.319000
0.02511552	36.190000	0.313900
0.02512824	36.190000	0.313900
0.02513863	36.190000	0.313900
0.02515101	48.420000	0.427600
0.02516194	48.420000	0.427600
0.02517336	32.830000	0.281000
0.02522015	32.830000	0.281000
0.02522160	45.910000	0.383200
0.02526588	45.910000	0.383200
0.02526751	37.400000	0.300500
0.02527773	37.400000	0.300500
0.02532497	39.830000	0.319400
0.02532736	36.190000	0.286200
0.02533584	36.190000	0.286200
0.02534713	47.420000	0.406400
0.02537102	47.420000	0.406400
0.02537321	47.420000	0.406400
0.02538271	47.630000	0.410100
0.02542862	47.630000	0.410100
0.02543044	47.630000	0.412300
0.02543993	47.630000	0.412300
0.02545185	47.630000	0.412300
0.02546399	47.630000	0.410200
0.02547559	47.630000	0.410200
0.02548758	47.770000	0.412200
0.02549855	47.770000	0.412200
0.02551209	47.770000	0.412200
0.02552214	47.630000	0.417000
0.02553352	47.630000	0.417000
0.02554565	47.630000	0.417000
0.02555775	47.630000	0.418100
0.02557185	47.630000	0.418100
0.02558002	47.630000	0.418100
0.02559191	47.630000	0.418100
0.02560370	47.630000	0.417600
0.02561522	47.630000	0.417600
0.02562817	47.630000	0.417600
0.02563906	47.560000	0.411700
0.02565021	47.560000	0.411700
0.02566189	47.490000	0.413500
0.02567340	47.490000	0.413500
0.02568515	47.490000	0.413500
0.02569705	47.490000	0.412100
0.02571064	47.490000	0.412100
0.02572007	47.490000	0.412100
0.02573231	47.490000	0.412100
0.02574360	47.490000	0.412100
0.02575516	47.490000	0.412100
0.02576669	47.420000	0.410200
0.02578194	47.420000	0.410200
0.02578977	47.420000	0.410200
0.02580174	47.340000	0.409700
0.02581322	47.340000	0.409700
0.02582457	47.340000	0.409700
0.02583654	47.340000	0.409300
0.02584825	47.340000	0.409300
0.02585983	47.340000	0.409300
0.02587102	47.270000	0.405500
0.02588308	47.270000	0.405500
0.02589558	47.270000	0.405500
0.02590604	47.340000	0.406600
0.02591793	47.340000	0.406600
0.02593690	47.340000	0.406600
0.02598241	47.340000	0.410100
0.02599720	47.270000	0.402500
0.02600777	47.270000	0.406600
0.02601184	47.270000	0.406600
0.02601624	47.270000	0.406600
0.02603762	47.270000	0.406600
0.02610446	47.340000	0.406000
0.02613066	47.270000	0.404900
0.02613998	47.270000	0.404900
0.02614168	47.270000	0.408200
0.02615635	47.270000	0.408200
0.02617935	47.270000	0.408200
0.02618436	47.200000	0.406200
0.02618604	47.200000	0.406200
0.02619733	47.200000	0.406200
0.02620913	47.200000	0.406200
0.02622090	47.270000	0.410800
0.02623233	47.270000	0.410800
0.02624416	47.270000	0.410800
0.02625584	47.270000	0.407800
0.02626756	47.270000	0.407800
0.02627999	47.270000	0.407800
0.02629442	47.270000	0.406400
0.02630654	47.270000	0.406400
0.02631565	47.200000	0.406700
0.02632544	47.200000	0.406700
0.02633769	47.200000	0.406700
0.02634905	47.200000	0.406700
0.02636056	47.200000	0.404600
0.02637203	47.200000	0.404600
0.02638459	47.200000	0.404600
0.02639551	47.200000	0.405400
0.02640700	47.200000	0.405400
0.02641872	47.200000	0.405400
0.02643045	47.130000	0.405300
0.02644227	47.130000	0.405300
0.02645403	47.130000	0.405300
0.02646546	47.130000	0.405300
0.02647683	47.130000	0.405300
0.02648856	47.130000	0.405300
0.02650008	46.990000	0.400600
0.02651178	46.990000	0.400600
0.02652326	46.990000	0.400600
0.02653495	47.060000	0.415700
0.02654641	47.060000	0.415700
0.02655816	47.060000	0.415700
0.02656958	47.130000	0.420800
0.02658139	47.130000	0.420800
0.02659311	47.130000	0.420800
0.02660454	47.060000	0.417100
0.02661613	47.060000	0.417100
0.02662801	46.990000	0.403900
0.02663962	46.990000	0.403900
0.02665155	46.990000	0.403900
0.02666289	46.990000	0.403900
0.02667514	47.060000	0.405300
0.02668615	47.060000	0.405300
0.02669744	47.060000	0.405300
0.02670918	46.990000	0.407200
0.02672093	46.990000	0.407200
0.02673256	46.990000	0.407200
0.02674418	46.920000	0.408200
0.02675590	46.920000	0.408200
0.02676743	46.920000	0.408200
0.02677910	46.920000	0.404800
0.02679058	46.920000	0.404800
0.02680241	46.840000	0.401200
0.02681402	46.840000	0.401200
0.02682557	46.840000	0.401200
0.02683722	46.840000	0.401200
0.02684909	46.990000	0.403800
0.02686073	46.990000	0.403800
0.02687204	46.990000	0.403800
0.02688381	47.060000	0.402400
0.02689534	47.060000	0.402400
0.02690681	47.060000	0.402400
0.02691829	47.060000	0.404400
0.02692983	47.060000	0.404400
0.02694176	46.990000	0.404800
0.02695328	46.990000	0.404800
0.02696513	46.990000	0.404800
0.02697678	46.990000	0.405400
0.02698841	46.990000	0.405400
0.02700101	46.990000	0.405400
0.02701170	46.990000	0.405400
0.02702385	46.990000	0.403700
0.02703448	46.990000	0.403700
0.02704679	46.990000	0.403700
0.02705799	47.060000	0.407900
0.02706963	47.060000	0.407900
0.02708133	47.060000	0.407900
0.02709293	47.060000	0.407200
0.02710956	47.060000	0.407200
0.02711873	47.060000	0.410800
0.02712895	47.060000	0.410800
0.02716308	47.060000	0.410800
0.02718782	46.990000	0.409300
0.02719516	46.990000	0.409300
0.02720109	46.990000	0.409300
0.02721576	46.990000	0.409300
0.02723328	46.990000	0.409300
0.02724959	46.990000	0.410000
0.02726118	46.990000	0.410000
0.02726906	46.920000	0.411300
0.02727414	46.920000	0.411300
0.02728388	46.920000	0.411300
0.02730547	47.060000	0.414700
0.02731898	47.060000	0.414700
0.02732639	47.060000	0.414700
0.02733494	46.920000	0.407100
0.02734023	46.920000	0.407100
0.02734904	46.920000	0.407100
0.02736100	46.920000	0.407100
0.02737994	46.920000	0.411600
0.02738712	46.920000	0.411600
0.02739602	46.920000	0.411600
0.02740709	46.920000	0.407200
0.02741863	46.920000	0.407200
0.02743021	47.270000	0.403000
0.02744185	47.270000	0.403000
0.02745353	47.270000	0.403000
0.02746508	47.130000	0.400000
0.02747671	47.130000	0.400000
0.02748818	47.130000	0.400000
0.02749975	47.060000	0.398200
0.02751125	47.060000	0.398200
0.02752284	47.060000	0.398200
0.02753461	47.060000	0.398200
0.02754617	47.130000	0.401300
0.02755758	47.130000	0.401300
0.02756916	47.130000	0.401300
0.02758096	47.060000	0.402000
0.02759244	47.060000	0.402000
0.02760418	46.990000	0.402600
0.02761553	46.990000	0.402600
0.02762720	46.990000	0.402600
0.02763903	46.990000	0.402800
0.02765080	46.990000	0.402800
0.02766171	46.990000	0.402800
0.02767340	46.990000	0.402700
0.02768486	46.990000	0.402700
0.02769645	46.990000	0.402700
0.02770803	46.990000	0.402700
0.02771970	47.060000	0.405500
0.02773128	47.060000	0.405500
0.02774322	47.060000	0.405500
0.02775499	46.990000	0.404100
0.02776829	46.990000	0.404100
0.02778619	46.920000	0.404900
0.02779869	46.920000	0.404900
0.02780532	46.920000	0.404900
0.02781763	46.920000	0.406000
0.02782451	46.920000	0.406000
0.02783559	46.920000	0.406000
0.02784779	46.840000	0.406500
0.02790464	46.840000	0.406500
0.02795652	46.840000	0.406000
0.02801001	63.150000	0.453700
0.02802844	53.350000	0.425800
0.02803037	53.350000	0.425800
0.02808285	53.350000	0.425800
0.02816027	43.840000	0.314800
0.02821227	18.880000	0.179600
0.02824485	18.450000	0.184500
0.02826584	17.660000	0.176900
0.02828208	17.660000	0.176900
0.02828922	17.660000	0.176900
0.02829878	17.660000	0.176900
0.02830714	17.520000	0.176900
0.02831356	17.520000	0.176900
0.02832376	17.520000	0.176900
0.02833538	17.380000	0.176700
0.02839324	17.380000	0.176700
0.02839564	17.380000	0.176500
0.02840493	17.520000	0.177800
0.02841632	17.520000	0.177800
0.02842786	17.520000	0.177800
0.02843941	17.450000	0.177800
0.02848589	17.450000	0.177800
0.02848826	17.520000	0.178000
0.02849723	17.520000	0.178000
0.02850869	41.050000	0.307100
0.02852039	41.050000	0.307100
0.02853207	41.050000	0.307100
0.02854391	41.050000	0.307100
0.02855508	32.040000	0.257200
0.02856676	32.040000	0.257200
0.02857824	32.610000	0.260300
0.02858999	32.610000	0.260300
0.02860161	32.610000	0.260300
0.02861338	32.470000	0.260000
0.02862539	32.470000	0.260000
0.02863705	32.470000	0.260000
0.02864841	32.470000	0.260000
0.02866172	32.470000	0.260000
0.02867181	32.470000	0.260000
0.02868337	4.360000	0.057800
0.02869517	4.360000	0.057800
0.02870699	4.360000	0.057800
0.02871861	4.360000	0.057800
0.02873066	4.360000	0.057900
0.02874197	4.360000	0.057900
0.02875353	4.360000	0.058600
0.02876528	4.360000	0.058600
0.02877714	4.360000	0.058600
0.02878873	4.290000	0.057900
0.02880041	4.290000	0.057900
0.02881182	4.290000	0.057900
0.02882456	4.290000	0.058200
0.02883502	4.290000	0.058200
0.02884728	4.290000	0.058200
0.02885850	4.360000	0.058500
0.02887017	4.360000	0.058500
0.02888197	4.360000	0.058900
0.02889337	4.360000	0.058900
0.02890516	4.360000	0.058900
0.02891656	4.360000	0.058900
0.02892824	4.360000	0.058900
0.02893985	4.360000	0.058900
0.02895178	4.360000	0.058900
0.02896434	4.290000	0.058700
0.02897493	4.290000	0.058700
0.02898681	4.290000	0.058700
0.02899830	4.360000	0.058600
0.02901001	4.360000	0.058600
0.02902161	4.360000	0.058600
0.02903324	4.290000	0.058900
0.02904487	4.290000	0.058900
0.02905631	4.290000	0.058800
0.02906833	4.290000	0.058800
0.02908002	4.290000	0.058800
0.02909161	4.290000	0.058800
0.02910295	4.360000	0.059100
0.02911505	4.360000	0.059100
0.02912649	4.360000	0.059100
0.02913962	4.360000	0.058900
0.02914997	4.360000	0.058900
0.02916125	4.360000	0.058900
0.02917295	4.360000	0.058900
0.02918436	4.360000	0.058900
0.02919633	4.360000	0.058900
0.02920749	4.290000	0.058000
0.02921918	4.290000	0.058000
0.02923088	4.360000	0.058200
0.02924348	4.360000	0.058200
0.02925509	4.360000	0.058200
0.02926594	4.360000	0.058200
0.02927689	4.360000	0.058400
0.02928866	4.360000	0.058400
0.02930029	4.360000	0.058400
0.02931182	4.290000	0.058200
0.02932347	4.290000	0.058200
0.02933476	4.290000	0.058200
0.02934668	4.360000	0.058300
0.02935839	4.360000	0.058300
0.02937019	4.360000	0.058300
0.02938185	4.360000	0.058300
0.02939417	4.360000	0.058300
0.02940574	4.290000	0.057800
0.02941639	4.290000	0.057800
0.02942799	4.290000	0.057800
0.02943970	4.290000	0.057800
0.02945144	4.290000	0.057600
0.02946281	4.290000	0.057600
0.02947436	4.290000	0.057600
0.02948590	4.360000	0.058300
0.02949762	4.360000	0.058300
0.02950935	4.360000	0.058300
0.02952095	4.360000	0.058100
0.02953266	4.360000	0.058100
0.02954422	4.290000	0.058200
0.02955573	4.290000	0.058200
0.02956716	4.290000	0.058200
0.02957897	4.290000	0.058200
0.02959050	4.290000	0.058100
0.02960188	4.290000	0.058100
0.02961339	4.290000	0.058100
0.02962507	4.290000	0.057800
0.02963656	4.290000	0.057800
0.02964839	4.290000	0.057800
0.02965968	4.290000	0.057900
0.02967150	4.290000	0.057900
0.02968318	4.290000	0.057900
0.02969506	4.290000	0.057700
0.02970625	4.290000	0.057700
0.02971811	4.360000	0.058100
0.02972968	4.360000	0.058100
0.02974142	4.360000	0.058100
0.02975281	4.360000	0.058100
0.02976464	4.290000	0.058100
0.02977608	4.290000	0.058100
0.02978758	4.290000	0.058100
0.02979948	4.360000	0.057900
0.02981079	4.360000	0.057900
0.02982236	4.360000	0.057900
0.02983435	4.290000	0.057700
0.02984713	4.290000	0.057700
0.02985721	4.290000	0.057700
0.02986878	4.290000	0.057800
0.02988061	4.290000	0.057800
0.02989204	4.290000	0.058000
0.02990385	4.290000	0.058000
0.02991525	4.290000	0.058000
0.02992679	4.290000	0.058000
0.02993856	4.360000	0.057500
0.02995032	4.360000	0.057500
0.02996201	4.360000	0.057500
0.02997573	4.360000	0.057600
0.02998800	4.360000	0.057600
0.02999791	4.360000	0.057600
0.03000826	4.360000	0.057600
0.03001969	4.360000	0.057600
0.03003138	17.380000	0.172100
0.03004299	17.380000	0.172100
0.03005478	17.380000	0.172100
0.03006597	20.170000	0.193200
0.03007760	20.170000	0.193200
0.03008916	20.170000	0.193200
0.03010060	20.170000	0.193200
0.03011214	20.170000	0.193200
0.03012398	20.170000	0.193200
0.03013541	20.170000	0.193200
0.03014730	35.190000	0.274200
0.03015882	35.190000	0.274200
0.03017035	35.190000	0.274200
0.03018162	25.320000	0.221100
0.03019338	25.320000	0.221100
0.03020523	35.260000	0.275200
0.03021633	35.260000	0.275200
0.03022800	35.260000	0.275200
0.03023990	35.690000	0.276300
0.03025150	35.690000	0.276300
0.03026306	35.690000	0.276300
0.03027459	35.690000	0.276300
0.03028603	36.260000	0.276600
0.03029772	36.260000	0.276600
0.03030959	36.260000	0.276600
0.03032101	36.260000	0.275900
0.03033243	36.260000	0.275900
0.03034405	36.260000	0.275900
0.03036175	36.040000	0.274600
0.03036769	36.040000	0.274600
0.03037941	35.470000	0.271700
0.03039067	35.470000	0.271700
0.03040248	35.470000	0.271700
0.03041451	24.960000	0.213400
0.03042588	24.960000	0.213400
0.03043759	24.960000	0.213400
0.03044934	24.960000	0.213400
0.03046104	24.460000	0.211700
0.03047309	24.460000	0.211700
0.03048409	24.460000	0.211700
0.03049590	23.960000	0.210600
0.03050738	23.960000	0.210600
0.03051889	23.670000	0.209900
0.03053065	23.670000	0.209900
0.03054230	23.670000	0.209900
0.03055392	23.530000	0.210100
0.03056535	23.530000	0.210100
0.03057704	23.530000	0.210100
0.03058898	18.520000	0.179000
0.03060027	18.520000	0.179000
0.03061237	18.520000	0.179000
0.03062394	18.520000	0.179000
0.03063591	18.160000	0.179100
0.03064721	18.160000	0.179100
0.03065870	18.160000	0.179100
0.03067044	17.800000	0.179000
0.03068227	17.800000	0.179000
0.03069358	17.660000	0.178400
0.03070522	17.660000	0.178400
0.03071731	17.660000	0.178400
0.03072859	17.590000	0.178200
0.03074278	17.590000	0.178200
0.03075250	17.590000	0.178200
0.03076374	16.020000	0.111500
0.03077538	16.020000	0.111500
0.03078806	16.020000	0.111500
0.03079888	16.020000	0.111500
0.03081012	14.940000	0.085000
0.03082172	14.940000	0.085000
0.03083332	14.940000	0.085000
0.03084494	14.940000	0.084900
0.03085646	14.940000	0.084900
0.03086817	14.870000	0.084400
0.03087990	14.870000	0.084400
0.03089166	14.870000	0.084400
0.03090326	14.870000	0.084400
0.03091470	14.870000	0.084400
0.03092620	14.870000	0.084400
0.03093786	14.870000	0.084400
0.03094942	14.870000	0.084400
0.03096096	14.870000	0.084400
0.03097250	14.870000	0.084400
0.03098418	14.870000	0.084600
0.03099568	14.870000	0.084600
0.03100767	14.800000	0.084400
0.03101939	14.800000	0.084400
0.03103104	14.800000	0.084400
0.03104265	14.800000	0.084300
0.03105428	14.800000	0.084300
0.03106563	14.800000	0.084300
0.03107721	14.800000	0.084400
0.03108903	14.800000	0.084400
0.03110045	14.800000	0.084400
0.03111196	14.800000	0.084300
0.03112366	14.800000	0.084300
0.03113537	14.800000	0.084300
0.03114684	14.800000	0.084300
0.03115828	14.800000	0.084300
0.03116998	14.800000	0.084300
0.03118155	14.800000	0.084300
0.03119308	14.800000	0.084300
0.03120478	14.800000	0.084300
0.03121618	14.800000	0.084300
0.03122777	14.800000	0.084300
0.03123939	14.800000	0.084300
0.03125076	14.800000	0.084600
0.03126243	14.800000	0.084600
0.03127420	14.800000	0.084600
0.03128558	14.730000	0.084400
0.03129725	14.730000	0.084400
0.03130889	14.730000	0.084400
0.03132047	14.730000	0.084400
0.03133178	14.800000	0.084400
0.03134356	14.800000	0.084400
0.03135513	14.800000	0.084400
0.03136714	14.800000	0.084400
0.03137862	14.800000	0.084400
0.03139017	14.730000	0.084200
0.03140197	14.730000	0.084200
0.03141319	14.730000	0.084200
0.03142513	14.800000	0.084400
0.03143664	14.800000	0.084400
0.03144795	14.800000	0.084400
0.03145971	14.800000	0.084400
0.03147120	14.800000	0.084500
0.03148292	14.800000	0.084500
0.03149475	14.800000	0.084500
0.03150581	14.800000	0.084300
0.03151737	14.800000	0.084300
0.03152927	14.800000	0.124500
0.03154067	14.800000	0.124500
0.03155228	14.800000	0.124500
0.03156377	21.880000	0.202000
0.03157543	21.880000	0.202000
0.03158750	21.880000	0.202000
0.03159870	40.910000	0.348400
0.03161037	40.910000	0.348400
0.03162219	40.910000	0.348400
0.03163367	40.910000	0.348400
0.03164535	40.190000	0.340900
0.03165694	40.190000	0.340900
0.03166853	1989.980000	8.576500
0.03168039	1989.980000	8.576500
0.03169161	1989.980000	8.576500
0.03170333	1976.890000	8.524200
0.03171473	1976.890000	8.524200
0.03172649	1976.890000	8.524200
0.03173802	33.250000	0.273200
0.03174935	33.250000	0.273200
0.03176133	33.250000	0.273200
0.03177451	25.600000	0.211300
0.03178447	25.600000	0.211300
0.03179650	25.600000	0.211300
0.03180780	25.600000	0.211300
0.03181957	26.320000	0.229100
0.03183132	26.320000	0.229100
0.03184301	26.320000	0.234300
0.03185424	26.320000	0.234300
0.03186572	26.320000	0.234300
0.03187722	26.320000	0.233400
0.03188916	26.320000	0.233400
0.03190044	26.320000	0.233400
0.03191193	26.240000	0.228600
0.03192353	26.240000	0.228600
0.03193525	26.240000	0.228600
0.03194696	26.390000	0.231800
0.03195839	26.390000	0.231800
0.03197001	26.390000	0.231800
0.03198137	26.390000	0.231800
0.03199306	26.390000	0.232000
0.03200469	26.390000	0.232000
0.03201633	26.390000	0.232100
0.03202816	26.390000	0.232100
0.03203994	26.390000	0.232100
0.03205149	26.390000	0.235200
0.03206300	26.390000	0.235200
0.03207466	26.390000	0.235200
0.03208637	4.360000	0.057900
0.03209807	4.360000	0.057900
0.03210958	4.360000	0.057900
0.03212083	21.450000	0.200100
0.03213256	21.450000	0.200100
0.03214387	21.450000	0.200100
0.03215576	37.050000	0.200100
0.03216752	37.050000	0.314300
0.03217951	37.050000	0.314300
0.03219109	4.860000	0.065900
0.03220256	4.860000	0.065900
0.03221406	4.860000	0.065900
0.03222576	19.020000	0.189600
0.03223692	19.020000	0.189600
0.03224863	19.020000	0.189600
0.03226020	38.190000	0.330300
0.03227201	38.190000	0.330300
0.03228351	38.190000	0.330300
0.03229502	38.330000	0.319200
0.03230654	38.330000	0.319200
0.03231817	38.330000	0.319200
0.03233001	38.330000	0.319500
0.03234153	38.330000	0.319500
0.03235300	38.330000	0.319500
0.03236487	38.480000	0.317700
0.03237656	38.480000	0.317700
0.03238806	38.480000	0.317700
0.03239988	38.330000	0.317400
0.03241130	38.330000	0.317400
0.03242285	38.330000	0.317400
0.03243453	38.330000	0.322100
0.03244624	38.330000	0.322100
0.03245791	38.330000	0.322100
0.03247078	38.260000	0.323900
0.03248118	38.260000	0.323900
0.03249265	38.260000	0.323900
0.03250437	38.330000	0.325000
0.03251730	38.330000	0.325000
0.03252769	38.330000	0.325000
0.03254029	38.330000	0.326100
0.03255125	38.330000	0.326100
0.03256297	38.330000	0.326100
0.03257466	38.260000	0.323300
0.03258965	38.260000	0.323300
0.03259850	38.260000	0.323300
0.03261031	38.260000	0.325700
0.03262192	38.260000	0.325700
0.03263293	38.260000	0.325700
0.03264438	38.330000	0.324200
0.03265605	38.330000	0.324200
0.03266927	38.330000	0.323200
0.03267963	38.330000	0.323200
0.03269106	38.330000	0.323200
0.03270252	38.330000	0.323200
0.03271388	38.400000	0.324100
0.03272561	38.400000	0.324100
0.03273719	38.400000	0.324100
0.03274854	38.400000	0.323800
0.03276049	38.400000	0.323800
0.03277198	38.400000	0.323800
0.03278402	38.480000	0.325200
0.03279537	38.480000	0.325200
0.03280699	38.330000	0.325200
0.03281822	38.330000	0.322200
0.03283012	38.330000	0.322200
0.03284150	38.330000	0.322200
0.03285326	38.400000	0.323500
0.03286465	38.400000	0.323500
0.03287670	38.400000	0.323500
0.03288821	39.050000	0.325700
0.03289980	39.050000	0.325700
0.03291122	39.050000	0.325700
0.03292293	36.260000	0.289900
0.03293437	36.260000	0.289900
0.03294617	36.260000	0.289900
0.03295823	40.050000	0.337600
0.03296943	40.050000	0.337600
0.03298106	43.410000	0.366500
0.03299281	43.410000	0.366500
0.03300429	43.410000	0.366500
0.03301579	43.410000	0.366500
0.03302803	43.410000	0.369300
0.03303962	43.410000	0.369300
0.03305076	43.410000	0.369300
0.03306244	43.270000	0.364800
0.03307507	43.270000	0.364800
0.03308630	43.270000	0.364800
0.03309701	43.270000	0.366900
0.03310846	43.270000	0.366900
0.03312017	43.270000	0.366900
0.03313179	43.340000	0.372800
0.03314356	43.340000	0.372800
0.03315487	43.200000	0.369600
0.03316639	43.200000	0.369600
0.03317821	43.200000	0.369600
0.03318988	43.200000	0.369600
0.03320175	43.270000	0.367100
0.03321316	43.270000	0.367100
0.03322532	43.270000	0.367100
0.03323678	43.270000	0.360300
0.03324824	43.270000	0.360300
0.03325999	43.270000	0.360300
0.03327132	43.200000	0.361300
0.03328287	43.200000	0.361300
0.03329439	43.200000	0.361300
0.03330613	43.630000	0.364300
0.03331773	43.630000	0.364300
0.03332921	36.120000	0.287300
0.03334110	36.120000	0.287300
0.03335347	36.120000	0.287300
0.03336657	35.610000	0.291200
0.03337557	35.610000	0.291200
0.03338716	35.610000	0.291200
0.03339900	35.610000	0.291200
0.03341067	38.830000	0.330700
0.03342192	38.830000	0.330700
0.03343353	38.830000	0.330700
0.03344559	38.900000	0.330300
0.03345690	38.900000	0.330300
0.03346831	38.900000	0.327300
0.03348008	38.900000	0.327300
0.03349189	38.900000	0.327300
0.03350377	38.830000	0.328100
0.03351525	38.830000	0.328100
0.03352670	38.830000	0.328100
0.03353829	38.830000	0.328100
0.03354977	38.830000	0.327500
0.03356160	38.830000	0.327500
0.03357297	38.830000	0.327500
0.03358470	38.760000	0.326000
0.03359645	38.760000	0.326000
0.03360794	38.760000	0.326000
0.03362000	38.830000	0.328300
0.03363087	38.830000	0.328300
0.03364242	38.830000	0.327000
0.03365421	38.830000	0.327000
0.03366566	38.830000	0.327000
0.03367719	38.760000	0.327600
0.03368868	38.760000	0.327600
0.03370071	38.760000	0.327600
0.03371192	38.760000	0.327600
0.03372328	38.760000	0.328600
0.03373524	38.760000	0.328600
0.03374694	38.760000	0.328600
0.03375822	38.760000	0.328700
0.03376978	38.760000	0.328700
0.03378181	38.760000	0.328700
0.03379301	38.760000	0.323800
0.03380457	38.760000	0.323800
0.03381646	38.690000	0.323700
0.03382786	38.690000	0.323700
0.03383916	38.690000	0.323700
0.03385080	38.690000	0.323700
0.03386247	38.690000	0.324200
0.03387409	38.690000	0.324200
0.03388627	38.690000	0.324200
0.03389799	38.690000	0.323300
0.03390894	38.690000	0.323300
0.03392086	38.690000	0.323300
0.03393192	38.620000	0.323400
0.03394359	38.620000	0.323400
0.03395513	38.690000	0.324200
0.03396705	38.690000	0.324200
0.03397854	38.690000	0.324200
0.03398995	38.620000	0.323500
0.03400170	38.620000	0.323500
0.03401331	38.620000	0.323500
0.03402459	38.620000	0.323500
0.03403697	38.900000	0.326100
0.03404819	38.900000	0.326100
0.03405947	38.900000	0.326100
0.03407145	39.480000	0.328700
0.03408259	39.480000	0.328700
0.03409410	39.480000	0.328700
0.03410565	35.970000	0.284400
0.03411722	35.970000	0.284400
0.03412942	38.690000	0.311500
0.03414047	38.690000	0.311500
0.03415189	38.690000	0.311500
0.03416374	42.840000	0.366300
0.03417519	42.840000	0.366300
0.03418691	42.840000	0.366300
0.03419836	42.840000	0.366300
0.03420988	43.270000	0.370200
0.03422189	43.270000	0.370200
0.03423292	43.270000	0.370200
0.03424449	42.770000	0.365300
0.03425626	42.770000	0.365300
0.03426797	42.550000	0.365300
0.03427958	42.550000	0.366400
0.03429159	42.550000	0.366400
0.03430332	43.120000	0.373600
0.03431469	43.120000	0.373600
0.03432623	43.120000	0.373600
0.03433807	42.910000	0.370200
0.03435015	42.910000	0.370200
0.03436105	42.910000	0.370200
0.03437247	42.910000	0.370200
0.03438432	42.770000	0.368900
0.03439580	42.770000	0.368900
0.03440734	42.770000	0.368900
0.03441914	42.550000	0.364600
0.03443169	42.550000	0.364600
0.03444237	43.050000	0.373400
0.03445405	43.050000	0.373400
0.03446605	43.050000	0.373400
0.03447723	42.770000	0.370300
0.03448874	42.770000	0.370300
0.03450046	42.770000	0.370300
0.03451200	41.620000	0.341300
0.03452344	41.620000	0.341300
0.03453492	41.620000	0.341300
0.03454681	41.620000	0.341300
0.03455794	35.830000	0.287100
0.03456971	35.830000	0.287100
0.03458148	35.830000	0.287100
0.03459297	37.980000	0.313700
0.03460457	37.980000	0.313700
0.03461663	38.330000	0.323500
0.03462756	38.330000	0.323500
0.03463928	38.330000	0.323500
0.03465115	38.120000	0.320200
0.03466216	38.120000	0.320200
0.03467394	38.120000	0.320200
0.03468574	38.120000	0.320200
0.03469772	38.120000	0.321500
0.03470926	38.120000	0.321500
0.03472041	38.120000	0.321500
0.03473221	37.980000	0.321700
0.03474378	37.980000	0.321700
0.03475630	38.120000	0.321700
0.03476663	38.120000	0.322100
0.03477804	38.120000	0.322100
0.03479014	38.050000	0.317800
0.03480112	38.050000	0.317800
0.03481279	38.050000	0.317800
0.03482440	37.980000	0.316800
0.03483611	37.980000	0.316800
0.03484815	37.980000	0.316800
0.03485899	37.980000	0.316800
0.03487059	38.050000	0.319000
0.03488226	38.050000	0.319000
0.03489382	38.050000	0.319000
0.03490568	38.050000	0.319000
0.03491703	38.050000	0.319000
0.03492860	37.980000	0.325200
0.03494002	37.980000	0.325200
0.03495218	37.980000	0.325200
0.03496332	37.980000	0.330200
0.03497483	37.980000	0.330200
0.03498660	37.980000	0.330200
0.03499816	37.980000	0.327000
0.03500983	37.980000	0.327000
0.03502132	37.980000	0.327000
0.03503316	37.980000	0.327000
0.03504450	37.900000	0.319100
0.03505623	37.900000	0.319100
0.03506784	37.900000	0.319100
0.03507917	38.050000	0.315600
0.03509079	38.050000	0.315600
0.03510223	37.980000	0.317400
0.03511417	37.980000	0.317400
0.03512623	37.980000	0.317400
0.03513713	38.050000	0.325300
0.03514859	38.050000	0.325300
0.03516008	38.050000	0.325300
0.03517175	38.050000	0.325300
0.03518387	38.050000	0.324700
0.03519481	38.050000	0.324700
0.03520637	38.050000	0.324700
0.03521831	38.050000	0.323900
0.03522984	38.050000	0.323900
0.03524120	38.400000	0.323900
0.03525279	38.400000	0.325900
0.03526432	38.400000	0.325900
0.03527606	36.620000	0.293000
0.03528756	36.620000	0.293000
0.03529913	36.620000	0.293000
0.03531067	38.400000	0.307100
0.03532238	38.400000	0.307100
0.03533396	38.400000	0.307100
0.03534569	38.400000	0.307100
0.03535705	43.050000	0.369700
0.03536903	43.050000	0.369700
0.03538029	43.050000	0.369700
0.03539189	42.910000	0.367600
0.03540367	42.910000	0.367600
0.03541521	42.910000	0.367500
0.03542668	42.910000	0.367500
0.03543808	42.910000	0.367500
0.03544991	43.050000	0.365700
0.03546152	43.050000	0.365700
0.03547340	43.050000	0.365700
0.03548471	43.050000	0.368300
0.03549626	43.050000	0.368300
0.03550784	43.050000	0.368300
0.03551956	43.050000	0.368300
0.03553101	42.910000	0.362100
0.03554238	42.910000	0.362100
0.03555421	42.910000	0.362100
0.03556564	42.770000	0.370800
0.03557736	42.770000	0.370800
0.03558868	42.700000	0.366400
0.03560073	42.700000	0.366400
0.03561225	42.700000	0.366400
0.03562397	42.620000	0.363600
0.03563568	42.620000	0.363600
0.03564773	42.620000	0.363600
0.03565889	42.200000	0.365800
0.03567012	42.200000	0.365800
0.03568200	42.200000	0.365800
0.03569409	42.200000	0.365800
0.03570528	39.830000	0.317200
0.03571678	39.830000	0.317200
0.03572823	39.830000	0.317200
0.03573995	33.680000	0.271200
0.03575137	33.680000	0.271200
0.03576297	38.690000	0.332900
0.03577478	38.690000	0.332900
0.03578630	38.690000	0.332900
0.03579844	38.830000	0.337200
0.03580972	38.830000	0.337200
0.03582159	38.830000	0.337200
0.03583308	38.830000	0.325800
0.03584433	38.830000	0.325800
0.03585618	38.830000	0.325800
0.03586760	38.830000	0.325800
0.03587904	38.760000	0.328000
0.03589076	38.760000	0.328000
0.03590426	38.830000	0.322400
0.03591369	38.830000	0.322400
0.03592543	38.830000	0.322400
0.03593689	38.760000	0.321200
0.03594892	38.760000	0.321200
0.03596052	38.760000	0.321200
0.03597231	38.760000	0.321100
0.03598358	38.760000	0.321100
0.03599561	38.760000	0.321100
0.03600693	38.760000	0.320000
0.03601884	38.760000	0.320000
0.03603054	38.760000	0.320000
0.03604150	38.760000	0.320000
0.03605351	38.760000	0.336300
0.03606571	38.760000	0.336300
0.03607638	38.760000	0.334400
0.03608807	38.760000	0.334400
0.03609948	38.760000	0.334400
0.03611113	38.760000	0.333400
0.03612321	38.760000	0.333400
0.03613433	38.760000	0.333400
0.03614603	38.830000	0.329200
0.03615737	38.830000	0.329200
0.03616906	38.830000	0.329200
0.03618063	38.830000	0.329200
0.03619235	38.760000	0.327600
0.03620418	38.760000	0.327600
0.03621575	38.760000	0.327600
0.03623218	38.690000	0.329000
0.03623902	38.690000	0.329000
0.03625084	38.690000	0.329200
0.03626229	38.690000	0.329200
0.03627382	38.690000	0.329200
0.03628534	38.690000	0.328100
0.03629694	38.690000	0.328100
0.03630868	38.690000	0.328100
0.03632043	38.690000	0.327500
0.03633182	38.690000	0.327500
0.03634361	38.690000	0.327500
0.03635543	38.690000	0.338100
0.03636700	38.690000	0.338100
0.03637810	38.690000	0.338100
0.03639017	38.690000	0.338100
0.03640172	38.690000	0.322200
0.03641308	38.690000	0.322200
0.03642448	38.620000	0.324800
0.03643631	38.620000	0.324800
0.03644797	38.620000	0.324800
0.03646001	38.620000	0.325000
0.03647097	38.620000	0.325000
0.03648267	38.620000	0.325000
0.03649459	38.620000	0.326500
0.03650587	38.620000	0.326500
0.03651980	38.620000	0.326500
0.03652903	38.620000	0.326500
0.03654169	38.620000	0.330200
0.03655218	38.620000	0.330200
0.03656397	38.620000	0.340100
0.03657619	38.620000	0.340100
0.03658677	38.620000	0.340100
0.03659881	38.620000	0.332100
0.03661022	38.620000	0.332100
0.03662148	38.620000	0.332100
0.03663340	38.620000	0.333600
0.03664541	38.620000	0.333600
0.03665922	38.620000	0.333600
0.03667028	38.480000	0.328600
0.03668082	38.480000	0.328600
0.03669147	38.480000	0.328600
0.03670291	38.480000	0.328600
0.03671426	38.480000	0.331500
0.03672603	38.480000	0.331500
0.03673738	38.480000	0.328400
0.03674917	38.480000	0.328400
0.03676082	38.480000	0.328400
0.03677225	38.550000	0.328300
0.03678392	38.550000	0.328300
0.03679560	38.550000	0.328300
0.03680742	38.620000	0.328400
0.03681917	38.620000	0.328400
0.03683074	38.620000	0.328400
0.03684233	38.550000	0.327400
0.03685387	38.550000	0.327400
0.03686527	38.550000	0.327400
0.03687694	38.480000	0.327400
0.03688865	38.480000	0.328500
0.03690019	38.480000	0.328500
0.03691188	38.550000	0.328200
0.03692495	38.550000	0.328200
0.03693622	38.550000	0.328200
0.03694808	38.480000	0.327700
0.03696215	38.480000	0.327700
0.03697263	38.480000	0.327700
0.03698133	38.480000	0.328000
0.03699310	38.480000	0.328000
0.03700443	38.480000	0.328000
0.03701602	38.480000	0.328000
0.03702792	38.480000	0.329500
0.03703924	38.480000	0.329500
0.03705111	38.400000	0.330200
0.03706255	38.400000	0.330200
0.03707549	38.400000	0.330200
0.03708595	38.330000	0.334300
0.03709733	38.330000	0.334300
0.03710868	38.330000	0.334300
0.03712022	38.260000	0.328300
0.03713199	38.260000	0.328300
0.03714361	38.260000	0.328300
0.03715537	38.330000	0.327900
0.03716684	38.330000	0.327900
0.03717881	38.330000	0.327900
0.03719031	38.330000	0.327900
0.03720166	38.330000	0.325100
0.03721395	38.330000	0.325100
0.03722608	38.330000	0.325000
0.03723728	38.330000	0.325000
0.03724850	38.330000	0.325000
0.03726022	38.550000	0.336600
0.03727189	38.550000	0.336600
0.03728348	38.550000	0.336600
0.03729517	38.480000	0.334000
0.03730697	38.480000	0.334000
0.03731852	38.480000	0.334000
0.03733007	38.480000	0.327100
0.03734171	38.480000	0.327100
0.03735336	38.480000	0.325900
0.03736515	38.480000	0.325900
0.03737654	38.480000	0.325900
0.03738825	38.480000	0.325900
0.03739970	38.400000	0.330200
0.03741137	38.400000	0.330200
0.03742289	38.400000	0.330200
0.03743456	38.400000	0.327500
0.03744619	38.400000	0.327500
0.03745793	38.400000	0.327500
0.03746925	38.400000	0.322800
0.03748102	38.400000	0.322800
0.03749267	38.400000	0.322800
0.03750441	38.330000	0.326300
0.03751597	38.330000	0.326300
0.03752760	38.330000	0.326900
0.03753892	38.330000	0.326900
0.03755050	38.330000	0.326900
0.03756209	38.330000	0.326900
0.03757373	38.330000	0.329300
0.03758549	38.330000	0.329300
0.03759692	38.330000	0.329300
0.03760863	38.330000	0.332900
0.03761993	38.330000	0.332900
0.03763176	38.330000	0.332900
0.03764319	38.330000	0.332800
0.03765472	38.330000	0.332800
0.03766606	38.330000	0.332800
0.03767773	38.400000	0.328400
0.03768926	38.400000	0.328400
0.03770082	38.400000	0.328400
0.03771251	38.260000	0.325500
0.03772431	38.260000	0.325500
0.03773575	38.260000	0.325500
0.03774712	48.630000	0.364500
0.03775902	48.630000	0.364500
0.03777053	48.630000	0.364500
0.03778194	54.140000	0.366200
0.03779360	54.140000	0.366200
0.03780536	54.140000	0.366200
0.03781714	46.560000	0.311000
0.03782892	46.560000	0.311000
0.03784016	41.270000	0.294600
0.03785201	41.270000	0.294600
0.03786358	41.270000	0.294600
0.03787522	41.270000	0.294600
0.03788664	39.260000	0.290200
0.03789836	39.260000	0.290200
0.03790997	39.260000	0.290200
0.03792133	19.660000	0.180700
0.03793324	19.660000	0.180700
0.03797988	19.660000	0.180700
0.03798134	22.240000	0.184300
0.03799157	17.880000	0.179300
0.03800326	17.880000	0.179300
0.03801488	17.730000	0.179600
0.03802666	17.730000	0.179600
0.03803815	17.730000	0.179600
0.03804943	17.730000	0.179600
0.03806152	17.660000	0.179900
0.03807264	17.660000	0.179900
0.03808422	17.660000	0.179900
0.03809578	17.660000	0.180100
0.03810738	17.660000	0.180100
0.03811911	17.660000	0.180100
0.03813075	17.590000	0.179800
0.03814214	17.590000	0.179800
0.03815444	17.590000	0.179500
0.03816647	17.590000	0.179500
0.03817701	17.590000	0.179500
0.03818853	17.590000	0.180200
0.03820019	17.590000	0.180200
0.03821169	17.590000	0.180200
0.03822346	17.590000	0.180200
0.03823472	17.590000	0.180000
0.03824654	17.590000	0.180000
0.03825804	17.590000	0.180000
0.03826954	37.330000	0.289200
0.03828096	37.330000	0.289200
0.03829271	37.330000	0.289200
0.03830432	30.750000	0.253000
0.03831615	30.750000	0.253000
0.03832734	30.970000	0.253800
0.03833929	30.970000	0.253800
0.03835057	30.970000	0.253800
0.03836347	31.470000	0.257300
0.03837435	31.470000	0.257300
0.03838531	31.470000	0.257300
0.03839703	31.470000	0.257300
0.03840838	14.730000	0.085300
0.03841986	14.730000	0.085300
0.03843150	14.730000	0.085300
0.03844317	14.590000	0.084900
0.03845472	14.590000	0.084900
0.03846644	14.590000	0.084900
0.03847814	14.590000	0.084800
0.03848978	14.590000	0.084800
0.03850103	14.800000	0.085600
0.03851263	14.800000	0.085600
0.03852404	14.800000	0.085600
0.03853588	14.800000	0.085600
0.03854747	14.800000	0.085000
0.03855897	14.800000	0.085000
0.03857059	14.800000	0.085000
0.03858236	14.800000	0.085000
0.03859368	14.800000	0.085000
0.03860557	14.800000	0.085000
0.03861691	14.800000	0.084800
0.03863128	14.800000	0.084800
0.03863991	14.800000	0.084800
0.03865171	14.800000	0.084900
0.03866304	14.800000	0.084900
0.03867459	14.800000	0.085000
0.03868627	14.800000	0.085000
0.03869778	14.800000	0.085000
0.03870936	14.800000	0.085000
0.03872082	14.800000	0.084800
0.03873383	14.800000	0.084800
0.03874427	14.800000	0.084800
0.03875553	14.800000	0.084700
0.03876735	14.800000	0.084700
0.03877926	14.800000	0.084700
0.03879042	14.800000	0.084400
0.03880233	14.800000	0.084400
0.03881353	14.800000	0.084200
0.03882537	14.800000	0.084200
0.03883705	14.800000	0.084200
0.03884881	14.800000	0.084200
0.03886062	14.800000	0.084300
0.03887148	14.800000	0.084300
0.03888329	14.800000	0.084300
0.03889803	14.800000	0.084900
0.03890618	14.800000	0.084900
0.03891772	14.800000	0.084900
0.03892937	14.800000	0.085000
0.03894090	14.800000	0.085000
0.03895295	14.800000	0.085000
0.03896410	14.730000	0.084800
0.03897567	14.730000	0.084800
0.03898735	14.800000	0.084200
0.03899922	14.800000	0.084200
0.03901014	14.800000	0.084200
0.03902190	14.800000	0.084200
0.03903343	14.800000	0.083800
0.03904545	14.800000	0.083800
0.03905675	14.800000	0.083800
0.03906891	14.800000	0.084100
0.03907985	14.800000	0.084100
0.03909167	14.800000	0.084100
0.03910346	14.800000	0.084400
0.03911480	14.800000	0.084400
0.03912649	14.800000	0.084400
0.03913829	14.800000	0.084500
0.03914949	14.800000	0.084500
0.03916100	14.800000	0.084500
0.03917265	14.800000	0.084500
0.03918422	14.800000	0.084500
0.03919591	14.800000	0.084500
0.03920750	14.730000	0.084500
0.03921938	14.730000	0.084500
0.03923074	14.730000	0.084500
0.03924334	14.660000	0.084900
0.03925463	14.660000	0.084900
0.03926549	14.660000	0.084900
0.03927743	14.660000	0.084900
0.03928888	14.660000	0.084900
0.03930063	26.600000	0.084900
0.03931230	26.600000	0.233900
0.03932394	26.600000	0.233900
0.03933568	18.520000	0.179100
0.03934722	18.520000	0.179100
0.03935944	18.520000	0.179100
0.03937044	18.520000	0.179100
0.03938201	38.330000	0.321900
0.03939402	38.330000	0.321900
0.03940597	38.330000	0.321900
0.03941705	1623.270000	7.734700
0.03942861	1623.270000	7.734700
0.03944034	1623.270000	7.734700
0.03945286	1976.030000	8.524000
0.03946356	1976.030000	8.524000
0.03947519	1974.320000	8.509800
0.03948690	1974.320000	8.509800
0.03949887	1974.320000	8.509800
0.03951062	1975.820000	8.512600
0.03952164	1975.820000	8.512600
0.03953318	1975.820000	8.512600
0.03954472	1975.820000	8.512600
0.03955627	1980.110000	8.533000
0.03956806	1980.110000	8.533000
0.03957946	1980.110000	8.533000
0.03959128	1980.400000	8.532600
0.03960263	1980.400000	8.532600
0.03961411	1980.400000	8.532600
0.03962571	1989.480000	8.572000
0.03963743	1989.480000	8.572000
0.03964899	1987.980000	8.573800
0.03966038	1987.980000	8.573800
0.03967223	1987.980000	8.573800
0.03968494	1991.120000	8.580800
0.03969571	1991.120000	8.580800
0.03970750	1991.120000	8.580800
0.03971888	1991.120000	8.580800
0.03973038	1991.700000	8.582400
0.03974203	1991.700000	8.582400
0.03975370	1991.700000	8.582400
0.03976522	1990.840000	8.581000
0.03977655	1990.840000	8.581000
0.03978847	1990.840000	8.581000
0.03979992	1989.910000	8.579700
0.03981156	1989.910000	8.579700
0.03982300	1990.190000	8.580200
0.03983608	1990.190000	8.580200
0.03984781	1990.190000	8.580200
0.03985818	1987.260000	8.574100
0.03986951	1987.260000	8.574100
0.03988128	1987.260000	8.574100
0.03989309	1987.260000	8.574100
0.03990457	1987.260000	8.574100
0.03991703	1987.260000	8.574100
0.03992912	1987.260000	8.574100
0.03993899	1985.760000	8.571200
0.03995060	1985.760000	8.571200
0.03996231	1984.040000	8.569100
0.03997421	1984.040000	8.569100
0.03998586	1984.040000	8.569100
0.03999744	1985.470000	8.560800
0.04000934	1985.470000	8.560800
0.04002064	1985.470000	8.560800
0.04003264	1991.840000	8.591900
0.04004429	1991.840000	8.591900
0.04005622	1991.840000	8.591900
0.04006880	1991.840000	8.591900
0.04008089	1986.260000	8.588600
0.04009196	1986.260000	8.588600
0.04010304	1986.260000	8.588600
0.04011441	1982.040000	8.579000
0.04012687	1982.040000	8.579000
0.04013780	1981.040000	8.577000
0.04014928	1981.040000	8.577000
0.04016109	1981.040000	8.577000
0.04017269	1981.970000	8.578900
0.04018426	1981.970000	8.578900
0.04019594	1981.970000	8.578900
0.04020797	1982.330000	8.577800
0.04021931	1982.330000	8.577800
0.04023103	1982.330000	8.577800
0.04024263	1982.330000	8.577800
0.04025472	1973.240000	8.538800
0.04026620	1973.240000	8.538800
0.04028031	1973.240000	8.538800
0.04028909	1975.820000	8.537500
0.04030098	1975.820000	8.537500
0.04031269	1983.330000	8.565600
0.04032385	1983.330000	8.565600
0.04033569	1983.330000	8.565600
0.04034727	1978.110000	8.555200
0.04035881	1978.110000	8.555200
0.04037083	1978.110000	8.555200
0.04038236	1977.110000	8.552700
0.04039475	1977.110000	8.552700
0.04040517	1977.110000	8.552700
0.04041682	1977.110000	8.552700
0.04042885	1976.250000	8.551500
0.04044068	1976.250000	8.551500
0.04045190	1981.110000	8.562000
0.04046321	1981.110000	8.562000
0.04047508	1981.110000	8.562000
0.04048681	1986.620000	8.573100
0.04049824	1986.620000	8.573100
0.04050953	1986.620000	8.573100
0.04052130	1981.540000	8.570100
0.04053282	1981.540000	8.570100
0.04054409	1981.540000	8.570100
0.04055723	1993.770000	8.602800
0.04056829	1993.770000	8.602800
0.04057906	1993.770000	8.602800
0.04059074	1993.770000	8.602800
0.04060225	1985.550000	8.577300
0.04061407	1985.550000	8.577300
0.04062556	1985.550000	8.577300
0.04063701	1985.550000	8.577300
0.04064851	1985.550000	8.577300
0.04066021	1978.110000	8.558700
0.04067177	1978.110000	8.558700
0.04068341	1978.110000	8.558700
0.04069498	1983.830000	8.582200
0.04070659	1983.830000	8.582200
0.04071825	1983.830000	8.582200
0.04072976	1983.830000	8.582200
0.04074139	1988.620000	8.593500
0.04075294	1988.620000	8.593500
0.04076463	1995.560000	8.593500
0.04077616	1995.560000	8.620800
0.04078781	1995.560000	8.620800
0.04079934	1996.420000	8.624000
0.04081083	1996.420000	8.624000
0.04082243	1996.420000	8.624000
0.04083414	1994.770000	8.606100
0.04084602	1994.770000	8.606100
0.04085730	1994.770000	8.606100
0.04086884	1992.270000	8.600900
0.04088051	1992.270000	8.600900
0.04089212	1992.270000	8.600900
0.04090355	1992.270000	8.600900
0.04091517	1990.980000	8.594800
0.04092825	1990.980000	8.594800
0.04093935	1977.610000	8.547000
0.04095134	1977.610000	8.547000
0.04096199	1977.610000	8.547000
0.04097367	1973.960000	8.549000
0.04098514	1973.960000	8.549000
0.04099681	1973.960000	8.549000
0.04100839	1970.880000	8.542200
0.04102016	1970.880000	8.542200
0.04103163	1970.880000	8.542200
0.04104278	1971.810000	8.544700
0.04105446	1971.810000	8.544700
0.04106606	1971.810000	8.544700
0.04107765	1971.810000	8.544700
0.04108919	1970.450000	8.542100
0.04110155	1970.450000	8.542100
0.04111257	1974.100000	8.549900
0.04112391	1974.100000	8.549900
0.04113539	1974.100000	8.549900
0.04114722	1983.540000	8.569800
0.04115883	1983.540000	8.569800
0.04117041	1983.540000	8.569800
0.04118209	1983.610000	8.569900
0.04119433	1983.610000	8.569900
0.04120606	1983.610000	8.569900
0.04121650	1985.970000	8.574600
0.04122825	1985.970000	8.574600
0.04123971	1985.970000	8.574600
0.04125141	1984.620000	8.574600
0.04126286	1984.620000	8.572000
0.04127461	1984.620000	8.572000
0.04128613	1978.610000	8.559400
0.04129769	1978.610000	8.559400
0.04130929	1978.610000	8.559400
0.04132406	1973.030000	8.536600
0.04133257	1973.030000	8.536600
0.04134390	1973.030000	8.536600
0.04135542	1973.030000	8.536600
0.04136704	1973.030000	8.536600
0.04137906	1973.030000	8.536600
0.04139066	1993.060000	8.604000
0.04140188	1993.060000	8.604000
0.04141323	1993.060000	8.604000
0.04142492	1993.270000	8.605100
0.04143663	1993.270000	8.605100
0.04144796	1993.270000	8.605100
0.04145954	1991.910000	8.602000
0.04147113	1991.910000	8.602000
0.04148282	1991.910000	8.602000
0.04149449	1989.620000	8.597300
0.04150638	1989.620000	8.597300
0.04151785	1989.620000	8.597300
0.04152918	1990.770000	8.600600
0.04154081	1990.770000	8.600600
0.04155223	1990.770000	8.600600
0.04156412	1990.770000	8.600600
0.04157556	1987.620000	8.581600
0.04158703	1987.620000	8.581600
0.04159843	1977.890000	8.539900
0.04161012	1977.890000	8.539900
0.04162147	1977.890000	8.539900
0.04163325	1984.900000	8.571500
0.04164471	1984.900000	8.571500
0.04165662	1984.900000	8.571500
0.04166791	1984.830000	8.571800
0.04167966	1984.830000	8.571800
0.04169106	1984.830000	8.571800
0.04170330	1983.970000	8.570700
0.04171425	1983.970000	8.570700
0.04172638	1983.970000	8.570700
0.04173752	1988.550000	8.570700
0.04174911	1988.550000	8.579900
0.04176095	1988.550000	8.579900
0.04177279	1988.840000	8.580100
0.04178554	1988.840000	8.580100
0.04179572	1988.840000	8.580100
0.04180705	1987.480000	8.577200
0.04182027	1987.480000	8.577200
0.04183045	1987.480000	8.577200
0.04184181	1989.260000	8.580900
0.04185324	1989.260000	8.580900
0.04186459	1989.260000	8.580900
0.04187677	1989.260000	8.580900
0.04188797	1987.480000	8.577000
0.04189946	1987.480000	8.577000
0.04191086	1989.190000	8.581000
0.04192262	1989.190000	8.581000
0.04193602	1989.190000	8.581000
0.04194619	1986.330000	8.574700
0.04195749	1986.330000	8.574700
0.04196897	1986.330000	8.574700
0.04198060	1984.970000	8.567100
0.04199206	1984.970000	8.567100
0.04200361	1984.970000	8.567100
0.04201523	1980.320000	8.548300
0.04202706	1980.320000	8.548300
0.04203875	1980.320000	8.548300
0.04205036	1980.320000	8.548300
0.04206212	1986.830000	8.588900
0.04207315	1986.830000	8.588900
0.04208470	1986.830000	8.588900
0.04209639	1986.830000	8.588900
0.04210818	1986.830000	8.588900
0.04211951	1982.400000	8.582100
0.04213110	1982.400000	8.582100
0.04214285	1982.400000	8.582100
0.04215434	1995.630000	8.609600
0.04216586	1995.630000	8.609600
0.04217748	1995.630000	8.609600
0.04218926	1990.910000	8.600200
0.04220100	1990.910000	8.600200
0.04221247	1990.910000	8.600200
0.04222404	1983.330000	8.580100
0.04223591	1983.330000	8.580100
0.04224729	1983.330000	8.580100
0.04225898	1979.320000	8.548200
0.04227044	1979.320000	8.548200
0.04228198	1979.320000	8.548200
0.04229361	1980.750000	8.562700
0.04230517	1980.750000	8.562700
0.04231682	1980.750000	8.562700
0.04232831	1984.900000	8.573100
0.04234009	1984.900000	8.573100
0.04235139	1984.900000	8.573100
0.04236280	1982.250000	8.567800
0.04237468	1982.250000	8.567800
0.04238612	1982.250000	8.567800
0.04239767	1975.890000	8.554200
0.04240932	1975.890000	8.554200
0.04242082	1975.890000	8.554200
0.04243263	1982.180000	8.567200
0.04244426	1982.180000	8.567200
0.04245578	1982.180000	8.567200
0.04246727	1979.040000	8.560400
0.04247911	1979.040000	8.560400
0.04249056	1979.040000	8.560400
0.04250241	1978.110000	8.558500
0.04251451	1978.110000	8.558500
0.04252572	1978.110000	8.558500
0.04253773	1978.110000	8.558500
0.04254883	1985.330000	8.573800
0.04256051	1985.330000	8.573800
0.04257174	1987.550000	8.578600
0.04258354	1987.550000	8.578600
0.04259507	1987.550000	8.578600
0.04260671	1980.180000	8.563000
0.04261863	1980.180000	8.563000
0.04262976	1980.180000	8.563000
0.04264141	1977.820000	8.553400
0.04265296	1977.820000	8.553400
0.04266443	1977.820000	8.553400
0.04267616	1971.670000	8.535500
0.04268745	1971.670000	8.535500
0.04269912	1971.670000	8.535500
0.04271094	1980.540000	8.575100
0.04272280	1980.540000	8.575100
0.04273427	1980.540000	8.575100
0.04274589	1981.400000	8.580600
0.04275758	1981.400000	8.580600
0.04276936	1981.400000	8.580600
0.04278139	1984.620000	8.587500
0.04279300	1984.620000	8.587500
0.04280427	1984.620000	8.587500
0.04281569	1984.620000	8.587500
0.04282737	1984.620000	8.587500
0.04283902	1984.620000	8.587500
0.04285066	1983.330000	8.585000
0.04286212	1983.330000	8.585000
0.04287368	1983.330000	8.585000
0.04288523	1982.040000	8.579400
0.04289675	1982.040000	8.579400
0.04290828	1982.040000	8.579400
0.04291997	1962.800000	8.516900
0.04293155	1962.800000	8.516900
0.04294333	1962.800000	8.516900
0.04295479	1951.570000	8.501500
0.04296647	1951.570000	8.501500
0.04297789	1951.570000	8.501500
0.04298958	1953.500000	8.507900
0.04300163	1953.500000	8.507900
0.04301366	1951.500000	8.504100
0.04302491	1951.500000	8.504100
0.04303617	1951.500000	8.504100
0.04304781	1951.500000	8.504100
0.04305963	1957.440000	8.516500
0.04307104	1957.440000	8.516500
0.04308280	1957.440000	8.516500
0.04309550	1957.650000	8.516800
0.04310580	1957.650000	8.516800
0.04311751	1957.650000	8.516800
0.04312902	1981.330000	8.566600
0.04314104	1981.330000	8.566600
0.04315242	1981.330000	8.566600
0.04316435	1992.630000	8.589900
0.04317580	1992.630000	8.589900
0.04318771	1990.480000	8.585700
0.04319944	1990.480000	8.585700
0.04321088	1990.480000	8.585700
0.04322265	1990.480000	8.585700
0.04323417	1992.840000	8.590900
0.04324557	1992.840000	8.590900
0.04325752	1992.840000	8.590900
0.04326863	1996.420000	8.598600
0.04328025	1996.420000	8.598600
0.04329179	1996.420000	8.598600
0.04330338	1994.200000	8.594100
0.04331644	1994.200000	8.594100
0.04332672	1994.200000	8.594100
0.04333851	1988.480000	8.568500
0.04335072	1988.480000	8.568500
0.04336170	1989.340000	8.584900
0.04337362	1989.340000	8.584900
0.04338515	1989.340000	8.584900
0.04339672	1989.340000	8.584900
0.04340873	1996.630000	8.614300
0.04342036	1996.630000	8.614300
0.04343193	1996.630000	8.614300
0.04344385	1993.910000	8.609600
0.04345538	1993.910000	8.609600
0.04346688	1993.910000	8.609600
0.04348270	1995.990000	8.613800
0.04348995	1995.990000	8.613800
0.04350205	1983.260000	8.587700
0.04351319	1983.260000	8.587700
0.04352520	1983.260000	8.587700
0.04353627	1983.260000	8.587700
0.04354814	1983.260000	8.587700
0.04356065	1983.260000	8.587700
0.04357133	1983.260000	8.587700
0.04358289	1979.680000	8.564000
0.04359442	1979.680000	8.564000
0.04360606	1979.680000	8.564000
0.04361733	1970.670000	8.535800
0.04362902	1970.670000	8.535800
0.04364073	1970.670000	8.535800
0.04365314	1980.750000	8.566900
0.04366457	1980.750000	8.566900
0.04367605	1981.040000	8.567600
0.04368793	1981.040000	8.567600
0.04369868	1981.040000	8.567600
0.04371043	1978.540000	8.563000
0.04372201	1978.540000	8.563000
0.04373366	1978.540000	8.563000
0.04374515	1978.540000	8.563000
0.04375663	1974.170000	8.553700
0.04376826	1974.170000	8.553700
0.04378008	1974.170000	8.553700
0.04379164	1974.170000	8.553700
0.04380344	1974.170000	8.553700
0.04381497	1975.890000	8.557200
0.04382678	1975.890000	8.557200
0.04383831	1975.890000	8.557200
0.04385028	1965.950000	8.536100
0.04386171	1965.950000	8.536100
0.04387314	1965.950000	8.536100
0.04388507	1965.950000	8.536100
0.04389734	1963.660000	8.531900
0.04390793	1963.660000	8.531900
0.04392201	1963.660000	8.531900
0.04393752	1971.450000	8.547800
0.04394358	1971.450000	8.547800
0.04395484	1971.450000	8.547800
0.04396664	1994.840000	8.598800
0.04398091	1994.840000	8.598800
0.04399111	1993.130000	8.581700
0.04400145	1993.130000	8.581700
0.04401245	1993.130000	8.581700
0.04402385	1997.420000	8.601500
0.04403579	1997.420000	8.601500
0.04404729	1997.420000	8.601500
0.04405910	1997.420000	8.601500
0.04407057	2000.640000	8.623100
0.04408208	2000.640000	8.623100
0.04409398	2000.640000	8.623100
0.04410618	2003.500000	8.629000
0.04411725	2003.500000	8.629000
0.04412866	2002.000000	8.629000
0.04414035	2002.000000	8.626300
0.04415190	2002.000000	8.626300
0.04416380	2001.210000	8.624600
0.04417564	2001.210000	8.624600
0.04418777	2001.210000	8.624600
0.04419970	2000.710000	8.624300
0.04421238	2000.710000	8.624300
0.04422214	2000.710000	8.624300
0.04423267	2000.710000	8.624300
0.04424464	1996.630000	8.603900
0.04425608	1996.630000	8.603900
0.04426770	1996.630000	8.603900
0.04427965	1996.630000	8.603900
0.04429124	1996.630000	8.603900
0.04430300	1993.910000	8.593000
0.04431492	1993.910000	8.593000
0.04432617	1993.910000	8.593000
0.04433759	1995.560000	8.597000
0.04434912	1995.560000	8.597000
0.04436080	1995.560000	8.597000
0.04437228	1995.920000	8.597500
0.04438402	1995.920000	8.597500
0.04439572	1995.920000	8.597500
0.04440740	1995.920000	8.597500
0.04441906	1995.130000	8.596000
0.04443086	1995.130000	8.596000
0.04444242	1995.130000	8.596000
0.04445404	1992.410000	8.590200
0.04446544	1992.410000	8.590200
0.04447719	1987.550000	8.580100
0.04448872	1987.550000	8.580100
0.04450028	1987.550000	8.580100
0.04451190	1989.910000	8.585200
0.04452351	1989.910000	8.585200
0.04453503	1989.910000	8.585200
0.04454655	1991.980000	8.589000
0.04455797	1991.980000	8.589000
0.04456983	1991.980000	8.589000
0.04458153	1991.980000	8.589000
0.04459297	1992.050000	8.588900
0.04460466	1992.050000	8.588900
0.04461633	1992.910000	8.588900
0.04462795	1992.910000	8.591300
0.04463928	1992.910000	8.591300
0.04465093	1989.480000	8.571300
0.04466263	1989.480000	8.571300
0.04467443	1989.480000	8.571300
0.04468575	1996.270000	8.598000
0.04469727	1996.270000	8.598000
0.04470902	1996.270000	8.598000
0.04472074	1996.270000	8.598000
0.04473208	2001.640000	8.623200
0.04474390	2001.640000	8.623200
0.04475520	2001.640000	8.623200
0.04476708	2005.430000	8.633700
0.04477850	2005.430000	8.633700
0.04479023	2002.210000	8.626600
0.04480148	2002.210000	8.626600
0.04481322	2002.210000	8.626600
0.04482493	1997.350000	8.616500
0.04483654	1997.350000	8.616500
0.04484803	1997.350000	8.616500
0.04485975	1990.270000	8.601600
0.04487131	1990.270000	8.601600
0.04488300	1990.270000	8.601600
0.04489462	1990.270000	8.601600
0.04490633	1989.120000	8.594700
0.04491774	1989.120000	8.594700
0.04492947	1989.120000	8.594700
0.04494098	1983.610000	8.558700
0.04495487	1983.610000	8.558700
0.04496417	1985.470000	8.576200
0.04497569	1985.470000	8.576200
0.04498741	1985.470000	8.576200
0.04499878	1985.470000	8.576200
0.04501046	1985.470000	8.576200
0.04502205	1985.470000	8.576200
0.04503363	1988.910000	8.584000
0.04504513	1988.910000	8.584000
0.04505674	1988.910000	8.584000
0.04506839	1988.910000	8.584000
0.04507979	1984.190000	8.574100
0.04509144	1984.190000	8.574100
0.04510309	1986.830000	8.579300
0.04511451	1986.830000	8.579300
0.04512627	1986.830000	8.579300
0.04513778	1987.690000	8.581600
0.04514938	1987.690000	8.581600
0.04516094	1987.690000	8.581600
0.04517243	1991.200000	8.589000
0.04518440	1991.200000	8.589000
0.04519554	1991.200000	8.589000
0.04520722	1997.420000	8.603000
0.04521898	1997.420000	8.603000
0.04523064	1997.420000	8.603000
0.04524235	1997.420000	8.603000
0.04525397	1990.410000	8.588000
0.04526571	1990.410000	8.588000
0.04527728	1992.700000	8.591800
0.04528868	1992.700000	8.591800
0.04530035	1992.700000	8.591800
0.04531260	1995.130000	8.594300
0.04532353	1995.130000	8.594300
0.04533525	1995.130000	8.594300
0.04534678	1994.560000	8.583700
0.04535873	1994.560000	8.583700
0.04537234	1994.560000	8.583700
0.04538145	1994.560000	8.583700
0.04539308	1999.280000	8.619800
0.04540464	1999.280000	8.619800
0.04541625	1999.280000	8.619800
0.04542780	1996.130000	8.613400
0.04543932	1996.130000	8.613400
0.04545108	1995.130000	8.611400
0.04546296	1995.130000	8.611400
0.04547413	1995.130000	8.611400
0.04548628	1991.340000	8.604700
0.04549758	1991.340000	8.604700
0.04552090	1990.270000	8.603000
0.04552245	1990.270000	8.603000
0.04553245	1990.270000	8.603000
0.04554398	1990.270000	8.603000
0.04555544	1990.270000	8.603000
0.04556715	1993.560000	8.607700
0.04557847	1993.560000	8.607700
0.04560176	1983.690000	8.554300
0.04560322	1983.690000	8.554300
0.04561321	1983.690000	8.554300
0.04562500	1989.260000	8.581200
0.04563655	1989.260000	8.581200
0.04564811	1989.260000	8.581200
0.04565992	1994.630000	8.595800
0.04567123	1994.630000	8.595800
0.04568307	1994.630000	8.595800
0.04569497	1993.560000	8.593500
0.04570640	1993.560000	8.593500
0.04571831	1993.560000	8.593500
0.04573065	1993.560000	8.593500
0.04574160	1993.560000	8.593500
0.04575398	1993.560000	8.593500
0.04576604	1995.990000	8.597800
0.04577657	1995.990000	8.597800
0.04578876	1995.990000	8.597800
0.04579968	1997.420000	8.600600
0.04581149	1997.420000	8.600600
0.04582345	1997.420000	8.600600
0.04583458	1999.350000	8.604600
0.04584613	1999.350000	8.604600
0.04585771	1999.350000	8.604600
0.04586968	1996.770000	8.599400
0.04588117	1996.770000	8.599400
0.04589281	1996.770000	8.599400
0.04590433	1996.060000	8.598500
0.04591602	1996.060000	8.598500
0.04592748	1996.060000	8.598500
0.04593933	1996.420000	8.599300
0.04595134	1996.420000	8.599300
0.04596258	1996.420000	8.599300
0.04597439	1992.480000	8.585400
0.04598601	1992.480000	8.585400
0.04599703	1992.480000	8.585400
0.04600898	1985.970000	8.561800
0.04602038	1985.970000	8.561800
0.04603229	1985.970000	8.561800
0.04604378	1993.990000	8.594700
0.04605513	1993.990000	8.594700
0.04606677	1993.990000	8.594700
0.04607816	2002.350000	8.627800
0.04608986	2002.350000	8.627800
0.04610138	2002.350000	8.627800
0.04611308	2005.720000	8.634500
0.04612440	2005.720000	8.634500
0.04613635	2005.720000	8.634500
0.04614792	2003.860000	8.630600
0.04616006	2003.860000	8.630600
0.04617141	2003.860000	8.630600
0.04618306	1996.200000	8.615600
0.04619497	1996.200000	8.615600
0.04620631	1999.640000	8.615600
0.04621773	1999.640000	8.615600
0.04623197	1999.640000	8.623100
0.04624154	1999.640000	8.623100
0.04625402	1992.770000	8.594700
0.04626435	1992.770000	8.594700
0.04627635	1992.770000	8.594700
0.04628734	1991.050000	8.587800
0.04629963	1991.050000	8.587800
0.04631047	1991.050000	8.587800
0.04632176	1993.340000	8.595400
0.04633384	1993.340000	8.595400
0.04634487	1993.340000	8.595400
0.04635642	1998.920000	8.607200
0.04636941	1998.920000	8.607200
0.04637984	1998.920000	8.607200
0.04639131	1990.620000	8.589900
0.04640281	1990.620000	8.589900
0.04641450	1990.620000	8.589900
0.04642612	1986.620000	8.581300
0.04643751	1986.620000	8.581300
0.04644899	1986.620000	8.581300
0.04646080	1986.620000	8.581300
0.04647227	1986.620000	8.581300
0.04648384	1986.620000	8.581300
0.04649528	1986.260000	8.580600
0.04650677	1986.260000	8.580600
0.04651840	1986.260000	8.580600
0.04653010	1984.040000	8.576200
0.04654174	1984.040000	8.576200
0.04655334	1984.040000	8.576200
0.04656572	1982.830000	8.574100
0.04657765	1982.830000	8.574100
0.04658824	1982.830000	8.574100
0.04659964	1987.330000	8.583500
0.04661117	1987.330000	8.583500
0.04662275	1987.330000	8.583500
0.04663444	1996.130000	8.601600
0.04664595	1996.130000	8.601600
0.04665767	1996.130000	8.601600
0.04666924	2006.220000	8.623200
0.04668108	2006.220000	8.623200
0.04669241	2004.210000	8.623200
0.04670407	2004.210000	8.623200
0.04671583	2004.210000	8.618200
0.04672723	2004.210000	8.618200
0.04673897	2005.290000	8.620000
0.04675043	2005.290000	8.620000
0.04676211	2005.290000	8.620000
0.04677366	2000.210000	8.609600
0.04678544	2000.210000	8.609600
0.04679701	2000.210000	8.609600
0.04680840	1984.330000	8.563900
0.04681995	1984.330000	8.563900
0.04683150	1984.330000	8.563900
0.04684297	1989.190000	8.587100
0.04685480	1989.190000	8.587100
0.04686654	1989.190000	8.587100
0.04687803	1992.270000	8.608300
0.04688980	1992.270000	8.608300
0.04690126	1992.270000	8.608300
0.04691297	1990.690000	8.605500
0.04692457	1990.690000	8.605500
0.04693605	1990.690000	8.605500
0.04694767	1993.910000	8.612500
0.04695933	1993.910000	8.612500
0.04697067	1993.910000	8.612500
0.04698260	1994.990000	8.614700
0.04699451	1994.990000	8.614700
0.04700609	1994.990000	8.614700
0.04701846	1999.490000	8.624600
0.04703005	1999.490000	8.624600
0.04704075	2003.930000	8.621700
0.04705228	2003.930000	8.621700
0.04706409	2003.930000	8.621700
0.04707668	2003.930000	8.621700
0.04708832	1997.560000	8.590700
0.04709903	1997.560000	8.590700
0.04711045	1997.560000	8.590700
0.04712240	2001.420000	8.611400
0.04713398	2001.420000	8.611400
0.04714552	2001.420000	8.611400
0.04715701	2004.710000	8.618700
0.04716862	2004.710000	8.618700
0.04718010	2004.710000	8.618700
0.04719194	2004.710000	8.618700
0.04720347	2004.710000	8.618700
0.04721469	2004.710000	8.618700
0.04722645	2011.150000	8.632000
0.04723808	2011.150000	8.632000
0.04724959	2011.150000	8.632000
0.04726105	2014.080000	8.638500
0.04727258	2014.080000	8.638500
0.04728435	2014.080000	8.638500
0.04729576	2004.570000	8.618300
0.04730731	2004.570000	8.618300
0.04731894	2004.570000	8.618300
0.04733039	2000.350000	8.609800
0.04734244	2000.350000	8.609800
0.04735396	1997.420000	8.603800
0.04736552	1997.420000	8.603800
0.04737723	1997.420000	8.603800
0.04738914	1997.420000	8.603800
0.04740088	1992.770000	8.593500
0.04741269	1992.770000	8.593500
0.04742447	1992.770000	8.593500
0.04743617	1991.340000	8.590500
0.04744769	1991.340000	8.590500
0.04745899	1991.340000	8.590500
0.04747061	1988.980000	8.580000
0.04748222	1988.980000	8.580000
0.04749416	1988.980000	8.580000
0.04750546	1991.120000	8.591400
0.04751711	1991.120000	8.591400
0.04752874	2007.500000	8.638600
0.04754034	2007.500000	8.638600
0.04755176	2007.500000	8.638600
0.04756350	2007.500000	8.638600
0.04757495	2018.300000	8.662800
0.04758654	2018.300000	8.662800
0.04759831	2018.300000	8.662800
0.04760976	2022.520000	8.671200
0.04762132	2022.520000	8.671200
0.04763287	2022.520000	8.671200
0.04764449	2014.160000	8.653800
0.04765598	2014.160000	8.653800
0.04766778	2010.580000	8.653800
0.04767934	2010.580000	8.646300
0.04769066	2010.580000	8.646300
0.04770243	1995.920000	8.610300
0.04771395	1995.920000	8.610300
0.04772574	1995.920000	8.610300
0.04773705	1995.920000	8.610300
0.04774867	1991.700000	8.577400
0.04776025	1991.700000	8.577400
0.04777196	1991.700000	8.577400
0.04778343	1996.270000	8.599800
0.04779582	1996.270000	8.599800
0.04780652	1996.270000	8.599800
0.04781796	2000.280000	8.610200
0.04782984	2000.280000	8.610200
0.04784197	2006.930000	8.624200
0.04785358	2006.930000	8.624200
0.04786500	2006.930000	8.624200
0.04787603	2005.500000	8.621200
0.04788736	2005.500000	8.621200
0.04789902	2005.500000	8.621200
0.04791101	2005.500000	8.621200
0.04792235	2005.500000	8.621200
0.04793395	2005.500000	8.621200
0.04794553	2005.500000	8.621200
0.04795714	2009.510000	8.629600
0.04796868	2009.510000	8.629600
0.04798024	2009.510000	8.629600
0.04799196	2014.010000	8.638700
0.04800370	2014.010000	8.638700
0.04801514	2012.440000	8.635200
0.04802708	2012.440000	8.635200
0.04803870	2012.440000	8.635200
0.04805034	2014.730000	8.640100
0.04806196	2014.730000	8.640100
0.04807350	2014.730000	8.640100
0.04808523	2014.730000	8.640100
0.04809669	2013.230000	8.636800
0.04810837	2013.230000	8.636800
0.04811983	2013.230000	8.636800
0.04813152	2009.860000	8.626500
0.04814310	2009.860000	8.626500
0.04815469	2010.220000	8.626500
0.04816650	2010.220000	8.619400
0.04817791	2010.220000	8.619400
0.04818970	2017.450000	8.659800
0.04820108	2017.450000	8.659800
0.04821257	2017.450000	8.659800
0.04822422	2017.450000	8.659800
0.04823573	2021.240000	8.668200
0.04824766	2021.240000	8.668200
0.04825914	2021.240000	8.668200
0.04827067	2020.880000	8.667800
0.04828256	2020.880000	8.667800
0.04829395	2020.880000	8.667800
0.04830584	2023.810000	8.673600
0.04831748	2023.810000	8.673600
0.04832922	2021.310000	8.668700
0.04834331	2021.310000	8.668700
0.04835286	2021.310000	8.668700
0.04836784	2018.590000	8.661400
0.04838105	2018.590000	8.661400
0.04838973	2018.590000	8.661400
0.04840020	2018.590000	8.661400
0.04841138	2006.930000	8.604200
0.04842279	2006.930000	8.604200
0.04843433	2006.930000	8.604200
0.04844623	2008.080000	8.622800
0.04846001	2008.080000	8.622800
0.04846928	2008.080000	8.622800
0.04848096	2010.360000	8.629600
0.04849574	2010.360000	8.629600
0.04850767	2013.870000	8.636800
0.04851569	2013.870000	8.636800
0.04852734	2013.870000	8.636800
0.04854019	2014.580000	8.638200
0.04855170	2014.580000	8.638200
0.04856529	2014.580000	8.638200
0.04857286	2014.580000	8.638200
0.04858481	2014.300000	8.637500
0.04859620	2014.300000	8.637500
0.04860766	2006.290000	8.621400
0.04861932	2006.290000	8.621400
0.04863079	2006.290000	8.621400
0.04864287	2006.290000	8.621400
0.04865484	2006.290000	8.621400
0.04866633	2006.290000	8.621400
0.04867716	2006.290000	8.621400
0.04868913	1999.210000	8.606100
0.04870054	1999.210000	8.606100
0.04871200	1999.210000	8.606100
0.04872333	1999.210000	8.606200
0.04873506	1999.210000	8.606200
0.04874657	1999.560000	8.606200
0.04875811	1999.560000	8.606800
0.04876958	1999.560000	8.606800
0.04878146	1999.210000	8.608200
0.04879306	1999.210000	8.608200
0.04880434	1999.210000	8.608200
0.04881608	2005.290000	8.604500
0.04882749	2005.290000	8.604500
0.04883937	2005.290000	8.604500
0.04885064	2005.290000	8.604500
0.04886247	2016.160000	8.645400
0.04887387	2016.160000	8.645400
0.04888552	2016.160000	8.645400
0.04889725	2021.090000	8.667200
0.04890909	2021.090000	8.667200
0.04892056	2018.950000	8.663000
0.04893189	2018.950000	8.663000
0.04894708	2018.950000	8.663000
0.04896019	2021.380000	8.668200
0.04897351	2021.380000	8.668200
0.04898483	2021.380000	8.668200
0.04899190	2024.170000	8.674000
0.04900184	2024.170000	8.674000
0.04901328	2024.170000	8.674000
0.04902458	2024.170000	8.674000
0.04903616	2025.890000	8.678600
0.04904775	2025.890000	8.678600
0.04905942	2025.890000	8.678600
0.04907109	2017.800000	8.645500
0.04908242	2017.800000	8.645500
0.04909433	2018.450000	8.645100
0.04910596	2018.450000	8.645100
0.04911758	2018.450000	8.645100
0.04912933	2017.020000	8.643800
0.04914083	2017.020000	8.643800
0.04915249	2017.020000	8.643800
0.04916391	2017.020000	8.643800
0.04917567	2018.520000	8.647600
0.04918727	2018.520000	8.647600
0.04919899	2018.520000	8.647600
0.04921050	2022.670000	8.656100
0.04922193	2022.670000	8.656100
0.04923351	2025.310000	8.661500
0.04924523	2025.310000	8.661500
0.04925681	2025.310000	8.661500
0.04926848	2021.310000	8.653300
0.04928017	2021.310000	8.653300
0.04929199	2021.310000	8.653300
0.04930307	2019.020000	8.648400
0.04931490	2019.020000	8.648400
0.04932656	2019.020000	8.648400
0.04933832	2019.020000	8.648400
0.04934980	2015.590000	8.641500
0.04936177	2015.590000	8.641500
0.04937318	2015.590000	8.641500
0.04938484	2015.590000	8.641500
0.04939653	2015.590000	8.641500
0.04940812	2008.650000	8.626800
0.04941983	2008.650000	8.626800
0.04943161	2008.650000	8.626800
0.04944285	2008.150000	8.627300
0.04945451	2008.150000	8.627300
0.04946625	2008.150000	8.627300
0.04947765	2007.220000	8.612800
0.04948917	2007.220000	8.612800
0.04950079	2007.220000	8.612800
0.04951273	2007.220000	8.612800
0.04952417	2013.940000	8.645000
0.04953573	2013.940000	8.645000
0.04954736	2013.940000	8.645000
0.04955888	2021.740000	8.669000
0.04957067	2021.740000	8.669000
0.04958236	2015.660000	8.656300
0.04959397	2015.660000	8.656300
0.04960547	2015.660000	8.656300
0.04961708	2010.650000	8.646300
0.04962863	2010.650000	8.646300
0.04964029	2010.650000	8.646300
0.04965176	2009.080000	8.642400
0.04966345	2009.080000	8.642400
0.04967507	2009.080000	8.642400
0.04968654	2009.080000	8.642400
0.04969819	2005.140000	8.634800
0.04970984	2005.140000	8.634800
0.04972145	1998.130000	8.597000
0.04973301	1998.130000	8.597000
0.04974439	1998.130000	8.597000
0.04975613	1998.490000	8.593100
0.04976797	1998.490000	8.593100
0.04977959	1998.490000	8.593100
0.04979127	2004.930000	8.617900
0.04980289	2004.930000	8.617900
0.04981454	2004.930000	8.617900
0.04982639	2018.380000	8.645900
0.04983825	2018.380000	8.645900
0.04984988	2018.380000	8.645900
0.04986160	2018.380000	8.645900
0.04987285	2018.300000	8.645600
0.04988461	2018.300000	8.645600
0.04989598	2014.080000	8.636800
0.04990735	2014.080000	8.636800
0.04991965	2014.080000	8.636800
0.04993104	2011.720000	8.631800
0.04994256	2011.720000	8.631800
0.04995721	2011.720000	8.631800
0.04996593	2011.220000	8.631000
0.04997744	2011.220000	8.631000
0.04998873	2011.220000	8.631000
0.05000096	2014.230000	8.637100
0.05001211	2014.230000	8.637100
0.05002374	2014.230000	8.637100
0.05003613	2014.230000	8.637100
0.05004775	2016.090000	8.641400
0.05005840	2016.090000	8.641400
0.05007037	2015.510000	8.640300
0.05008148	2015.510000	8.640300
0.05009317	2015.510000	8.640300
0.05010471	2015.510000	8.640300
0.05011840	2015.510000	8.640300
0.05012789	2015.510000	8.640300
0.05013935	2011.370000	8.619700
0.05015087	2011.370000	8.619700
0.05016258	2011.370000	8.619700
0.05017416	2011.370000	8.619700
0.05018586	2014.440000	8.638000
0.05019727	2014.440000	8.638000
0.05020903	2017.230000	8.658700
0.05022132	2017.230000	8.658700
0.05023318	2017.230000	8.658700
0.05024443	2020.020000	8.664800
0.05025547	2020.020000	8.664800
0.05026763	2020.020000	8.664800
0.05027907	2019.160000	8.662900
0.05029056	2019.160000	8.662900
0.05030323	2019.160000	8.662900
0.05031345	2019.450000	8.663500
0.05032497	2019.450000	8.663500
0.05033819	2019.450000	8.663500
0.05034949	2019.450000	8.663500
0.05036184	2017.300000	8.658600
0.05037214	2017.300000	8.658600
0.05038282	2010.290000	8.639100
0.05039610	2010.290000	8.639100
0.05040704	2010.290000	8.639100
0.05041991	2002.500000	8.605300
0.05043188	2002.500000	8.605300
0.05044440	2002.500000	8.605300
0.05045264	2005.640000	8.620000
0.05046490	2005.640000	8.620000
0.05047560	2005.640000	8.620000
0.05048818	2006.570000	8.622000
0.05049904	2006.570000	8.622000
0.05051359	1997.850000	8.603400
0.05052292	1997.850000	8.603400
0.05053718	1997.850000	8.603400
0.05054715	1997.850000	8.603400
0.05055978	1995.920000	8.599400
0.05057163	1995.920000	8.599400
0.05058162	1995.920000	8.599400
0.05059160	1992.700000	8.591600
0.05060417	1992.700000	8.591600
0.05061634	1992.700000	8.591600
0.05062742	865.880000	5.571300
0.05063897	865.880000	5.571300
0.05065144	865.880000	5.571300
0.05066156	45.200000	0.368000
0.05067301	45.200000	0.368000
0.05068448	45.200000	0.368000
0.05070052	50.060000	0.410700
0.05070966	50.060000	0.410700
0.05071913	50.060000	0.410700
0.05073082	41.620000	0.336900
0.05074256	41.620000	0.336900
0.05075378	41.620000	0.336900
0.05076589	47.200000	0.403400
0.05077946	47.200000	0.403400
0.05078837	47.200000	0.403400
0.05080046	48.850000	0.419200
0.05081205	48.850000	0.419200
0.05082314	48.850000	0.419200
0.05083477	48.850000	0.419200
0.05084627	48.920000	0.420300
0.05085787	48.920000	0.420300
0.05086934	48.850000	0.423600
0.05088083	48.850000	0.423600
0.05089279	48.850000	0.423600
0.05090441	48.850000	0.426900
0.05091635	48.850000	0.426900
0.05092778	48.850000	0.426900
0.05093933	48.850000	0.426800
0.05095097	48.850000	0.426800
0.05096309	48.850000	0.426800
0.05097416	48.920000	0.423900
0.05098594	48.920000	0.423900
0.05099709	48.920000	0.423900
0.05100955	48.920000	0.423900
0.05102052	48.920000	0.421800
0.05103221	48.920000	0.421800
0.05104450	48.850000	0.419100
0.05105648	48.850000	0.419100
0.05106862	48.850000	0.419100
0.05107907	48.920000	0.421800
0.05109080	48.920000	0.421800
0.05110273	48.920000	0.421800
0.05111444	48.990000	0.420400
0.05112579	48.990000	0.420400
0.05113802	48.990000	0.420400
0.05114971	49.060000	0.423900
0.05116110	49.060000	0.423900
0.05117226	49.060000	0.423200
0.05118398	49.060000	0.423200
0.05119576	49.060000	0.423200
0.05120704	49.060000	0.423200
0.05121861	49.060000	0.423000
0.05123002	49.060000	0.423000
0.05124311	49.060000	0.423000
0.05125373	48.990000	0.422200
0.05126543	48.990000	0.422200
0.05127667	48.990000	0.422200
0.05128984	48.990000	0.422100
0.05130039	48.990000	0.422100
0.05131352	48.990000	0.422100
0.05132353	49.060000	0.424000
0.05133635	49.060000	0.424000
0.05134649	49.060000	0.426800
0.05135841	49.060000	0.426800
0.05136965	49.060000	0.426800
0.05138177	49.060000	0.426800
0.05139353	49.060000	0.429200
0.05140523	49.060000	0.429200
0.05141644	49.060000	0.429200
0.05142788	49.130000	0.424600
0.05143935	49.130000	0.424600
0.05145095	49.130000	0.424600
0.05146262	49.130000	0.422900
0.05147439	49.130000	0.422900
0.05148668	49.130000	0.422900
0.05150005	49.130000	0.423400
0.05151057	49.130000	0.423400
0.05152032	49.130000	0.425900
0.05153214	49.130000	0.425900
0.05154523	49.130000	0.425900
0.05155545	49.130000	0.425900
0.05156704	49.130000	0.420900
0.05157824	49.130000	0.420900
0.05159015	49.130000	0.420900
0.05160150	49.130000	0.419900
0.05161382	49.130000	0.419900
0.05162501	49.130000	0.419900
0.05163583	49.130000	0.430300
0.05164762	49.130000	0.430300
0.05165921	49.200000	0.428800
0.05167094	49.200000	0.428800
0.05168304	49.200000	0.428800
0.05169407	49.200000	0.428800
0.05170690	49.130000	0.422200
0.05171706	49.130000	0.422200
0.05172946	49.130000	0.422200
0.05174097	49.200000	0.427900
0.05175199	49.200000	0.427900
0.05176466	49.200000	0.427900
0.05177530	49.280000	0.425900
0.05178731	49.280000	0.425900
0.05179855	49.280000	0.425900
0.05181046	49.280000	0.426400
0.05182271	49.280000	0.426400
0.05183362	49.280000	0.427100
0.05184545	49.280000	0.427100
0.05185654	49.280000	0.427100
0.05186865	49.280000	0.427100
0.05187966	49.280000	0.425000
0.05189189	49.280000	0.425000
0.05190339	49.280000	0.425000
0.05191515	49.280000	0.427100
0.05192635	49.280000	0.427100
0.05193869	49.280000	0.427100
0.05194956	49.350000	0.425900
0.05196164	49.350000	0.425900
0.05197310	49.350000	0.425900
0.05198604	49.350000	0.424700
0.05199801	49.350000	0.424700
0.05200868	49.350000	0.425100
0.05201909	49.350000	0.425100
0.05203086	49.350000	0.425100
0.05204249	49.350000	0.425100
0.05205399	61.360000	0.446700
0.05206582	61.360000	0.446700
0.05207729	61.360000	0.446700
0.05208903	80.460000	0.538300
0.05210049	80.460000	0.538300
0.05211199	80.460000	0.538300
0.05212367	82.390000	0.541700
0.05213519	82.390000	0.541700
0.05214667	62.510000	0.408000
0.05215850	62.510000	0.408000
0.05217023	62.510000	0.408000
0.05218156	54.570000	0.380900
0.05219293	54.570000	0.380900
0.05220480	54.570000	0.380900
0.05221635	54.570000	0.380900
0.05222823	34.260000	0.284700
0.05224009	34.260000	0.284700
0.05225106	34.260000	0.284700
0.05226347	31.110000	0.281200
0.05227419	31.110000	0.281200
0.05228553	31.110000	0.281200
0.05229735	30.320000	0.281000
0.05230919	30.320000	0.281000
0.05232030	30.110000	0.280700
0.05233235	30.110000	0.280700
0.05234411	30.110000	0.280700
0.05235521	30.110000	0.280700
0.05236725	29.960000	0.280600
0.05237872	29.960000	0.280600
0.05238976	29.960000	0.280600
0.05240191	29.890000	0.280300
0.05241308	29.890000	0.280300
0.05242472	29.890000	0.280300
0.05243650	29.960000	0.280800
0.05244839	29.960000	0.280800
0.05246001	29.960000	0.280800
0.05247144	29.890000	0.280600
0.05248284	29.890000	0.280600
0.05249412	29.890000	0.280200
0.05250657	29.890000	0.280200
0.05251784	29.890000	0.280200
0.05252955	29.890000	0.280200
0.05254135	44.050000	0.347600
0.05255257	44.050000	0.347600
0.05256471	44.050000	0.347600
0.05257655	47.990000	0.357600
0.05258778	47.990000	0.357600
0.05259998	47.990000	0.357600
0.05261145	43.630000	0.339900
0.05262266	43.630000	0.339900
0.05263387	43.550000	0.340300
0.05264571	43.550000	0.340300
0.05265743	43.550000	0.340300
0.05266878	44.340000	0.343200
0.05268141	44.340000	0.343200
0.05269285	44.340000	0.343200
0.05270435	16.300000	0.107100
0.05271671	16.300000	0.107100
0.05273066	16.300000	0.107100
0.05274172	16.300000	0.107100
0.05275361	16.300000	0.107100
0.05276424	16.300000	0.107100
0.05277363	16.300000	0.107100
0.05278523	16.300000	0.107100
0.05279655	16.300000	0.107100
0.05280823	16.300000	0.107000
0.05281992	16.300000	0.107000
0.05283259	16.300000	0.107000
0.05284292	16.370000	0.107000
0.05285516	16.370000	0.107000
0.05286700	16.370000	0.107000
0.05287750	16.370000	0.107000
0.05288918	16.300000	0.106800
0.05290087	16.300000	0.106800
0.05291252	16.300000	0.106800
0.05292388	16.300000	0.106600
0.05293532	16.300000	0.106600
0.05294698	16.300000	0.106600
0.05295853	16.230000	0.106400
0.05297016	16.230000	0.106400
0.05298238	16.160000	0.106400
0.05299316	16.160000	0.106400
0.05300477	16.160000	0.106400
0.05301649	16.160000	0.106500
0.05302796	16.160000	0.106500
0.05303962	16.160000	0.106500
0.05305111	16.160000	0.106500
0.05306253	16.160000	0.106500
0.05307429	16.160000	0.106500
0.05308641	16.160000	0.106500
0.05309769	16.160000	0.106200
0.05310890	16.160000	0.106200
0.05312072	16.160000	0.106300
0.05313231	16.160000	0.106300
0.05314368	16.160000	0.106300
0.05315535	16.230000	0.106200
0.05316693	16.230000	0.106200
0.05317854	16.230000	0.106200
0.05319000	16.230000	0.106200
0.05320193	16.300000	0.106500
0.05321319	16.300000	0.106500
0.05322480	16.300000	0.106500
0.05323637	16.230000	0.106200
0.05324815	16.230000	0.106200
0.05325977	16.230000	0.106200
0.05327256	16.230000	0.107200
0.05328347	16.230000	0.107200
0.05329441	16.230000	0.108100
0.05330600	16.230000	0.108100
0.05331771	16.230000	0.108100
0.05332924	16.230000	0.108000
0.05334052	16.230000	0.108000
0.05335201	16.230000	0.108000
0.05336382	16.230000	0.108000
0.05337538	16.230000	0.107200
0.05338694	16.230000	0.107200
0.05339904	16.230000	0.107200
0.05340985	16.230000	0.106100
0.05342184	16.230000	0.106100
0.05343329	16.300000	0.106100
0.05344494	16.300000	0.106100
0.05345700	16.300000	0.106100
0.05346863	16.300000	0.106500
0.05347964	16.300000	0.106500
0.05349162	16.300000	0.106500
0.05350285	16.230000	0.106800
0.05351429	16.230000	0.106800
0.05352596	16.230000	0.106800
0.05353785	16.230000	0.106800
0.05354943	16.230000	0.108200
0.05356097	16.230000	0.108200
0.05357280	16.230000	0.108200
0.05358427	16.230000	0.108400
0.05359584	16.230000	0.108400
0.05360721	16.160000	0.108600
0.05361891	16.160000	0.108600
0.05363066	16.160000	0.108600
0.05364215	16.160000	0.109100
0.05365444	16.160000	0.109100
0.05366627	16.160000	0.109100
0.05367719	16.160000	0.105300
0.05368906	16.160000	0.105300
0.05370016	16.160000	0.105300
0.05371197	16.160000	0.105300
0.05372389	16.160000	0.105400
0.05373509	16.160000	0.105400
0.05374662	16.160000	0.105400
0.05375801	16.230000	0.106100
0.05376972	16.230000	0.106100
0.05378148	16.160000	0.105900
0.05379285	16.160000	0.105900
0.05380458	16.160000	0.105900
0.05381612	16.230000	0.106000
0.05382777	16.230000	0.106000
0.05383942	16.230000	0.106000
0.05385155	16.230000	0.106000
0.05386292	16.230000	0.106000
0.05387441	16.230000	0.106000
0.05388588	16.230000	0.106000
0.05389775	16.230000	0.106000
0.05390954	16.230000	0.106000
0.05392166	16.230000	0.106000
0.05393249	16.230000	0.106100
0.05394418	16.230000	0.106100
0.05395620	16.230000	0.106000
0.05396721	16.230000	0.106000
0.05397885	16.230000	0.106000
0.05399027	16.160000	0.105700
0.05400438	16.160000	0.105700
0.05401409	16.160000	0.105700
0.05402507	16.160000	0.105600
0.05403749	16.160000	0.105600
0.05404852	16.160000	0.105600
0.05406008	16.160000	0.105600
0.05407170	16.160000	0.105800
0.05408331	16.160000	0.105800
0.05409459	16.160000	0.105800
0.05410611	16.160000	0.105900
0.05411796	16.160000	0.105900
0.05412992	16.160000	0.105800
0.05414104	16.160000	0.105800
0.05415267	16.160000	0.105800
0.05416434	16.090000	0.105700
0.05417596	16.090000	0.105700
0.05418785	16.090000	0.105700
0.05419950	16.160000	0.105800
0.05421113	16.160000	0.105800
0.05422273	16.160000	0.105800
0.05423429	16.160000	0.105800
0.05424582	16.160000	0.105700
0.05425760	16.160000	0.105700
0.05426917	16.160000	0.105700
0.05428081	16.160000	0.105700
0.05429260	16.160000	0.105700
0.05430431	16.160000	0.105800
0.05431601	16.160000	0.105800
0.05432766	16.160000	0.105800
0.05433992	16.160000	0.105300
0.05435508	16.160000	0.105300
0.05436552	16.160000	0.105300
0.05437413	16.160000	0.105400
0.05438552	16.160000	0.105400
0.05439727	16.160000	0.105400
0.05440900	16.160000	0.105400
0.05442053	16.160000	0.105500
0.05443211	16.160000	0.105500
0.05444361	16.230000	0.105600
0.05445515	16.230000	0.105600
0.05446679	16.230000	0.105600
0.05447836	16.160000	0.105400
0.05449002	16.160000	0.105400
0.05450155	16.160000	0.105400
0.05451313	16.160000	0.105600
0.05452472	16.160000	0.105600
0.05453609	16.160000	0.105600
0.05454767	16.160000	0.105500
0.05455932	16.160000	0.105500
0.05457098	16.160000	0.105500
0.05458259	16.160000	0.105500
0.05459394	16.160000	0.105700
0.05460633	16.160000	0.105700
0.05461733	16.160000	0.105500
0.05462903	16.160000	0.105500
0.05464058	16.160000	0.105500
0.05465233	16.090000	0.105500
0.05466375	16.090000	0.105500
0.05467529	16.090000	0.105500
0.05468676	16.160000	0.105700
0.05469858	16.160000	0.105700
0.05471007	16.160000	0.105700
0.05472159	16.160000	0.105700
0.05473330	16.160000	0.105500
0.05474475	16.160000	0.105500
0.05475639	16.090000	0.105500
0.05476789	16.090000	0.105500
0.05477961	16.090000	0.105500
0.05479150	16.160000	0.105500
0.05480294	16.160000	0.105500
0.05481510	16.160000	0.105500
0.05482618	16.160000	0.105600
0.05483781	16.160000	0.105600
0.05484943	16.160000	0.105600
0.05486117	16.160000	0.105400
0.05487244	16.160000	0.105400
0.05488431	16.160000	0.105400
0.05489580	16.160000	0.105400
0.05490742	16.160000	0.105700
0.05491888	16.160000	0.105700
0.05493141	16.230000	0.105600
0.05494215	16.230000	0.105600
0.05495356	16.230000	0.105600
0.05496543	16.090000	0.105200
0.05497728	16.090000	0.105200
0.05498850	16.090000	0.105200
0.05500014	16.160000	0.105400
0.05501152	16.160000	0.105400
0.05502314	16.160000	0.105400
0.05503493	16.160000	0.105500
0.05504666	16.160000	0.105500
0.05505865	16.160000	0.105500
0.05507086	16.160000	0.105500
0.05508164	16.160000	0.105400
0.05509351	16.160000	0.105400
0.05510731	16.160000	0.105400
0.05511611	16.160000	0.105400
0.05512791	16.160000	0.105400
0.05514023	16.090000	0.105400
0.05515870	16.090000	0.105400
0.05516634	16.090000	0.105400
0.05518122	16.090000	0.105200
0.05518670	16.090000	0.105200
0.05520220	16.090000	0.105200
0.05520991	16.090000	0.105100
0.05522222	16.090000	0.105100
0.05523365	16.090000	0.105100
0.05524714	16.160000	0.105200
0.05526042	16.160000	0.105200
0.05527088	16.090000	0.105100
0.05528392	16.090000	0.105100
0.05529512	16.090000	0.105100
0.05530630	16.090000	0.105100
0.05531539	16.090000	0.104900
0.05532868	16.090000	0.104900
0.05533809	16.090000	0.104900
0.05535441	16.090000	0.105100
0.05536100	16.090000	0.105100
0.05537264	16.090000	0.105100
0.05538436	16.020000	0.104900
0.05539595	16.020000	0.104900
0.05540750	16.020000	0.104800
0.05541909	16.020000	0.104800
0.05543074	16.020000	0.104800
0.05544292	16.020000	0.104800
0.05545414	16.090000	0.104900
0.05546590	16.090000	0.104900
0.05547762	16.090000	0.104900
0.05548899	16.090000	0.105000
0.05550059	16.090000	0.105000
0.05551225	16.090000	0.105000
0.05552402	16.090000	0.105100
0.05553568	16.090000	0.105100
0.05554703	16.090000	0.105100
0.05555869	16.090000	0.105200
0.05557045	16.090000	0.105200
0.05558226	16.160000	0.105200
0.05559373	16.160000	0.105200
0.05560546	16.160000	0.105200
0.05561722	16.160000	0.105200
0.05562855	16.090000	0.105100
0.05564017	16.090000	0.105100
0.05565183	16.090000	0.105100
0.05566369	16.090000	0.105200
0.05567638	16.090000	0.105200
0.05568662	16.090000	0.105200
0.05569824	16.090000	0.104900
0.05570999	16.090000	0.104900
0.05572154	16.090000	0.104900
0.05573303	16.090000	0.104900
0.05574464	16.090000	0.104900
0.05575624	16.090000	0.106400
0.05576784	16.090000	0.106400
0.05577951	16.090000	0.106400
0.05579064	16.090000	0.106400
0.05580250	16.090000	0.104900
0.05581439	16.090000	0.104900
0.05582611	16.090000	0.104900
0.05583787	16.160000	0.105000
0.05584949	16.160000	0.105000
0.05586071	16.160000	0.105000
0.05587291	16.090000	0.104900
0.05588466	16.090000	0.104900
0.05589600	16.090000	0.105500
0.05590815	16.090000	0.105500
0.05591947	16.090000	0.105500
0.05593123	16.090000	0.105400
0.05594258	16.090000	0.105400
0.05595437	16.090000	0.105400
0.05596579	16.090000	0.105400
0.05597750	16.090000	0.105500
0.05598914	16.090000	0.105500
0.05600054	16.090000	0.105500
0.05601212	16.090000	0.105400
0.05602395	16.090000	0.105400
0.05603546	16.090000	0.105400
0.05604699	16.090000	0.105200
0.05605870	16.090000	0.105200
0.05607015	16.090000	0.105300
0.05608203	16.090000	0.105300
0.05609363	16.090000	0.105300
0.05610530	16.090000	0.104900
0.05611691	16.090000	0.104900
0.05612841	16.090000	0.104900
0.05614001	16.090000	0.104900
0.05615179	16.090000	0.105100
0.05616311	16.090000	0.105100
0.05617493	16.090000	0.105100
0.05618642	16.160000	0.105500
0.05619788	16.160000	0.105500
0.05620964	16.160000	0.105500
0.05622113	16.090000	0.105300
0.05623267	16.090000	0.105300
0.05624457	16.090000	0.105000
0.05625603	16.090000	0.105000
0.05626752	16.090000	0.105000
0.05627922	16.020000	0.104800
0.05629103	16.020000	0.104800
0.05630243	16.020000	0.104800
0.05631414	16.020000	0.104800
0.05632589	16.020000	0.105000
0.05633848	16.020000	0.105000
0.05635030	16.020000	0.105000
0.05636089	16.020000	0.104900
0.05637264	16.020000	0.104900
0.05638432	16.090000	0.104900
0.05639557	16.090000	0.105100
0.05640737	16.090000	0.105100
0.05641882	16.090000	0.105000
0.05643061	16.090000	0.105000
0.05644220	16.090000	0.105000
0.05645365	16.090000	0.105000
0.05646542	16.090000	0.105000
0.05647701	16.090000	0.105000
0.05648859	16.090000	0.105000
0.05650035	16.090000	0.105200
0.05651230	16.090000	0.105200
0.05652358	16.090000	0.105200
0.05653527	16.090000	0.104700
0.05654684	16.090000	0.104700
0.05655843	16.090000	0.105000
0.05657002	16.090000	0.105000
0.05658184	16.090000	0.105000
0.05659336	16.020000	0.104600
0.05660480	16.020000	0.104600
0.05661650	16.020000	0.104600
0.05662809	16.020000	0.104700
0.05664002	16.020000	0.104700
0.05665149	16.020000	0.104700
0.05666353	16.020000	0.104700
0.05667456	16.020000	0.104800
0.05668683	16.020000	0.104800
0.05669840	16.020000	0.104800
0.05670969	16.020000	0.104900
0.05672113	16.020000	0.104900
0.05673332	16.020000	0.104700
0.05674444	16.020000	0.104700
0.05675619	16.020000	0.104700
0.05676801	16.020000	0.104700
0.05677919	16.020000	0.104700
0.05679083	16.020000	0.104700
0.05680282	16.020000	0.104700
0.05681420	16.020000	0.104700
0.05682581	16.020000	0.104700
0.05683737	16.020000	0.104700
0.05684894	15.950000	0.104600
0.05686088	15.950000	0.104600
0.05687209	15.950000	0.104600
0.05688374	16.020000	0.104700
0.05689562	16.020000	0.104700
0.05690700	15.950000	0.104200
0.05691887	15.950000	0.104200
0.05693019	15.950000	0.104200
0.05694208	16.020000	0.104300
0.05695351	16.020000	0.104300
0.05696495	16.020000	0.104300
0.05697712	16.020000	0.104500
0.05698851	16.020000	0.104500
0.05700022	16.020000	0.104500
0.05701168	16.020000	0.104500
0.05702309	16.090000	0.104600
0.05703468	16.090000	0.104600
0.05704656	15.950000	0.104600
0.05705833	15.950000	0.104100
0.05706988	15.950000	0.104100
0.05708155	16.090000	0.104400
0.05709319	16.090000	0.104400
0.05710453	16.090000	0.104400
0.05711633	16.090000	0.104400
0.05712806	16.090000	0.104400
0.05713951	16.090000	0.104400
0.05715128	16.020000	0.104300
0.05716294	16.020000	0.104300
0.05717416	16.020000	0.104300
0.05718611	16.020000	0.104300
0.05719804	16.090000	0.104200
0.05720909	16.090000	0.104200
0.05722067	16.020000	0.104400
0.05723262	16.020000	0.104400
0.05724530	16.020000	0.104400
0.05725547	16.020000	0.104300
0.05726722	16.020000	0.104300
0.05727883	16.020000	0.104300
0.05729103	16.020000	0.104300
0.05730185	16.020000	0.104300
0.05731387	16.020000	0.104300
0.05732499	16.020000	0.104100
0.05733656	16.020000	0.104100
0.05734803	16.020000	0.104100
0.05735956	16.020000	0.104100
0.05737122	16.020000	0.104000
0.05738293	16.020000	0.104000
0.05739649	16.020000	0.104000
0.05740590	16.020000	0.104000
0.05741759	16.020000	0.104000
0.05742942	15.950000	0.103700
0.05744110	15.950000	0.103700
0.05745231	15.950000	0.103700
0.05746432	16.020000	0.103800
0.05747580	16.020000	0.103800
0.05748741	16.020000	0.103800
0.05749931	16.020000	0.103900
0.05751120	16.020000	0.103900
0.05752270	16.020000	0.103900
0.05753421	16.020000	0.103900
0.05754587	16.020000	0.103900
0.05755874	16.020000	0.103900
0.05756918	16.020000	0.103900
0.05758049	16.020000	0.103900
0.05759341	16.020000	0.103900
0.05761563	16.020000	0.104100
0.05761773	16.020000	0.104100
0.05762734	16.020000	0.104100
0.05763851	16.020000	0.104300
0.05764990	16.020000	0.104300
0.05766159	16.020000	0.104300
0.05767324	16.020000	0.104300
0.05768454	15.950000	0.103900
0.05773149	15.950000	0.103900
0.05773311	15.950000	0.103800
0.05774279	15.950000	0.103900
0.05782385	15.950000	0.103800
0.05782576	15.950000	0.104200
0.05787025	15.950000	0.104200
0.05787209	15.950000	0.104000
0.05788183	16.020000	0.104100
0.05789428	16.020000	0.104100
0.05790517	16.020000	0.104100
0.05791656	16.020000	0.104200
0.05792814	16.020000	0.104200
0.05794080	16.020000	0.104200
0.05795228	16.020000	0.104300
0.05796422	16.020000	0.104300
0.05797442	16.020000	0.104300
0.05798640	16.020000	0.104300
0.05799825	16.020000	0.104300
0.05801012	16.020000	0.104300
0.05802148	16.020000	0.104300
0.05803257	15.950000	0.104100
0.05804431	15.950000	0.104100
0.05805586	16.020000	0.104000
0.05806757	16.020000	0.104000
0.05807902	16.020000	0.104000
0.05809065	16.020000	0.103900
0.05810238	16.020000	0.103900
0.05811402	16.020000	0.103900
0.05812535	16.020000	0.103600
0.05813698	16.020000	0.103600
0.05814846	16.020000	0.103600
0.05816017	16.020000	0.103800
0.05817288	16.020000	0.103800
0.05818425	16.020000	0.103800
0.05819558	16.020000	0.103900
0.05820708	16.020000	0.103900
0.05821853	16.020000	0.103900
0.05823047	16.020000	0.104100
0.05824184	16.020000	0.104100
0.05825355	16.020000	0.104100
0.05826529	16.020000	0.104100
0.05827684	16.020000	0.104100
0.05828884	16.020000	0.104100
0.05830020	16.020000	0.103700
0.05831161	16.020000	0.103700
0.05832297	16.020000	0.103700
0.05833481	15.950000	0.103700
0.05834645	15.950000	0.103700
0.05835887	15.950000	0.103700
0.05837022	15.950000	0.103700
0.05838149	15.950000	0.103700
0.05839336	15.950000	0.103700
0.05840497	16.020000	0.103800
0.05841645	16.020000	0.103800
0.05842809	16.020000	0.103800
0.05843927	15.950000	0.103900
0.05845196	15.950000	0.103900
0.05846273	15.950000	0.103900
0.05847417	15.950000	0.103500
0.05848596	15.950000	0.103500
0.05849771	15.950000	0.103500
0.05850905	15.950000	0.103600
0.05852042	15.950000	0.103600
0.05853262	15.950000	0.103600
0.05854366	15.950000	0.103600
0.05855549	15.950000	0.103600
0.05856654	15.950000	0.103600
0.05857817	15.950000	0.103900
0.05858990	15.950000	0.103900
0.05860134	15.950000	0.103900
0.05861292	15.950000	0.103800
0.05862458	15.950000	0.103800
0.05863611	15.950000	0.103800
0.05864788	16.020000	0.103800
0.05865951	16.020000	0.103800
0.05867104	16.020000	0.103800
0.05868274	16.020000	0.103900
0.05869438	16.020000	0.103900
0.05870576	16.020000	0.103900
0.05871753	15.870000	0.103800
0.05872931	15.870000	0.103800
0.05874079	15.870000	0.103800
0.05875234	15.870000	0.103800
0.05876416	15.870000	0.103800
0.05877551	15.870000	0.103800
0.05878718	15.950000	0.103700
0.05879854	15.950000	0.103700
0.05881278	15.950000	0.103700
0.05882187	15.950000	0.104000
0.05883347	15.950000	0.104000
0.05884517	15.950000	0.104000
0.05885696	15.950000	0.104000
0.05886862	15.950000	0.104000
0.05888023	15.950000	0.104000
0.05889181	15.950000	0.103700
0.05890333	15.950000	0.103700
0.05891463	15.950000	0.103700
0.05892647	15.950000	0.103900
0.05893810	15.950000	0.103900
0.05894950	15.950000	0.103900
0.05896113	16.020000	0.104000
0.05897272	16.020000	0.104000
0.05898441	16.020000	0.104000
0.05899615	15.950000	0.104300
0.05900762	15.950000	0.104300
0.05901914	15.950000	0.104500
0.05903090	15.950000	0.104500
0.05904267	15.950000	0.104500
0.05905473	15.950000	0.104500
0.05906600	15.950000	0.104300
0.05907741	15.950000	0.104300
0.05908905	15.950000	0.104300
0.05910058	15.950000	0.104400
0.05911242	15.950000	0.104400
0.05912380	15.950000	0.104400
0.05913558	15.950000	0.104600
0.05914734	15.950000	0.104600
0.05915916	15.950000	0.104600
0.05917076	15.950000	0.104500
0.05918253	15.950000	0.104500
0.05919420	16.020000	0.104900
0.05920690	16.020000	0.104900
0.05921785	16.020000	0.104900
0.05922912	16.020000	0.104900
0.05924098	15.950000	0.104400
0.05925453	15.950000	0.104400
0.05926419	15.950000	0.104400
0.05927557	15.870000	0.104200
0.05928721	15.870000	0.104200
0.05929896	15.870000	0.104200
0.05931056	15.870000	0.103600
0.05932213	15.870000	0.103600
0.05933392	15.950000	0.103800
0.05934556	15.950000	0.103800
0.05935694	15.950000	0.103800
0.05936882	15.950000	0.103700
0.05938030	15.950000	0.103700
0.05939218	15.950000	0.103700
0.05940333	15.950000	0.103700
0.05941501	15.870000	0.103400
0.05942671	15.870000	0.103400
0.05943816	15.870000	0.103400
0.05944975	15.870000	0.103300
0.05946140	15.870000	0.103300
0.05947297	15.870000	0.103300
0.05948453	15.870000	0.103500
0.05949635	15.870000	0.103500
0.05950781	15.870000	0.103500
0.05951979	15.870000	0.103500
0.05953135	15.870000	0.103500
0.05954291	15.870000	0.103400
0.05955436	15.870000	0.103400
0.05956595	15.870000	0.103400
0.05957766	15.870000	0.103400
0.05958918	15.870000	0.103300
0.05960075	15.870000	0.103300
0.05961272	15.870000	0.103300
0.05962439	15.870000	0.103400
0.05963571	15.870000	0.103400
0.05964735	15.870000	0.103400
0.05965887	15.870000	0.103400
0.05967034	15.870000	0.103400
0.05968211	15.870000	0.103300
0.05969331	15.870000	0.103300
0.05970536	15.870000	0.103300
0.05971639	15.870000	0.103500
0.05972782	15.870000	0.103500
0.05973951	15.870000	0.103500
0.05975113	15.870000	0.103500
0.05976265	15.870000	0.103700
0.05977398	15.870000	0.103700
0.05978617	15.870000	0.103700
0.05979759	15.870000	0.103600
0.05980896	15.870000	0.103600
0.05982094	15.870000	0.103700
0.05983234	15.870000	0.103700
0.05984395	15.870000	0.103700
0.05985556	15.950000	0.104700
0.05986707	15.950000	0.104700
0.05987956	15.950000	0.104700
0.05989225	15.870000	0.104600
0.05990339	15.870000	0.104600
0.05991426	15.870000	0.104600
0.05992517	15.870000	0.104600
0.05993758	15.870000	0.104500
0.05994858	15.870000	0.104500
0.05996029	15.870000	0.104500
0.05997262	15.870000	0.104300
0.05998288	15.870000	0.104300
0.05999466	15.800000	0.104500
0.06000631	15.800000	0.104500
0.06001757	15.800000	0.104500
0.06002935	15.800000	0.104800
0.06004123	15.800000	0.104800
0.06005264	15.800000	0.104800
0.06006405	15.800000	0.104800
0.06007591	15.800000	0.104800
0.06008722	15.800000	0.104800
0.06009873	15.800000	0.104800
0.06011052	15.800000	0.104700
0.06012186	15.800000	0.104700
0.06013384	15.800000	0.104700
0.06014542	15.870000	0.104000
0.06015699	15.870000	0.104000
0.06016852	15.950000	0.103400
0.06018005	15.950000	0.103400
0.06019177	15.950000	0.103400
0.06020373	15.950000	0.103500
0.06021517	15.950000	0.103500
0.06022676	15.950000	0.103500
0.06023869	15.950000	0.103500
0.06025082	15.950000	0.103300
0.06026228	15.950000	0.103300
0.06027303	15.950000	0.103300
0.06028459	15.870000	0.103300
0.06029663	15.870000	0.103300
0.06030863	15.870000	0.103300
0.06031998	15.870000	0.102900
0.06033131	15.870000	0.102900
0.06034234	15.870000	0.103100
0.06035372	15.870000	0.103100
0.06036601	15.870000	0.103100
0.06037721	15.950000	0.103100
0.06038890	15.950000	0.103100
0.06040047	15.950000	0.103100
0.06041214	15.950000	0.103100
0.06042380	15.870000	0.103000
0.06043529	15.870000	0.103000
0.06044704	15.870000	0.103000
0.06045854	15.870000	0.103300
0.06047025	15.870000	0.103300
0.06048222	15.870000	0.103300
0.06049340	15.870000	0.103300
0.06050546	15.870000	0.103300
0.06051670	15.870000	0.103200
0.06052810	15.870000	0.103200
0.06054028	15.870000	0.103200
0.06055112	15.870000	0.103000
0.06056315	15.870000	0.103000
0.06057407	15.870000	0.103000
0.06058594	15.870000	0.103000
0.06059742	15.870000	0.103200
0.06060883	15.870000	0.103200
0.06062042	15.870000	0.103200
0.06063196	15.870000	0.103100
0.06064375	15.870000	0.103100
0.06065550	15.870000	0.103000
0.06066681	15.870000	0.103000
0.06067872	15.870000	0.103000
0.06069049	15.800000	0.103100
0.06070146	15.800000	0.103100
0.06071338	15.800000	0.103100
0.06072485	15.800000	0.103100
0.06073635	15.800000	0.103000
0.06074788	15.800000	0.103000
0.06075941	15.800000	0.103000
0.06077103	15.800000	0.102800
0.06078275	15.800000	0.102800
0.06079426	15.800000	0.102800
0.06080594	15.800000	0.102900
0.06081755	15.800000	0.102900
0.06082875	15.870000	0.103600
0.06084044	15.870000	0.103600
0.06085216	15.870000	0.103600
0.06086374	15.870000	0.103600
0.06087502	15.870000	0.103600
0.06088675	15.870000	0.103600
0.06089854	15.870000	0.103600
0.06091292	15.950000	0.103400
0.06092156	15.950000	0.103400
0.06093284	15.950000	0.103400
0.06094491	15.950000	0.103400
0.06095624	15.950000	0.103400
0.06096792	15.870000	0.103000
0.06097953	15.870000	0.103000
0.06099076	15.870000	0.103000
0.06100287	15.870000	0.103100
0.06101414	15.870000	0.103100
0.06102611	15.870000	0.103100
0.06103700	15.870000	0.103200
0.06104882	15.870000	0.103200
0.06106043	15.870000	0.103200
0.06107257	15.870000	0.103200
0.06108436	15.870000	0.103100
0.06109544	15.870000	0.103100
0.06110671	15.870000	0.103100
0.06111818	15.800000	0.102900
0.06112986	15.800000	0.102900
0.06114164	15.870000	0.103400
0.06115293	15.870000	0.103400
0.06116444	15.870000	0.103400
0.06117601	15.870000	0.103200
0.06118781	15.870000	0.103200
0.06119932	15.870000	0.103200
0.06121071	15.870000	0.103200
0.06122248	15.950000	0.103400
0.06123400	15.950000	0.103400
0.06124542	15.950000	0.103400
0.06125722	15.950000	0.103400
0.06126890	15.950000	0.103400
0.06128015	15.950000	0.103400
0.06129197	15.950000	0.102900
0.06130721	15.950000	0.102900
0.06131568	15.950000	0.102900
0.06132661	15.950000	0.102900
0.06133828	15.950000	0.102900
0.06134997	15.950000	0.103400
0.06136159	15.950000	0.103400
0.06137321	15.950000	0.103400
0.06138469	15.950000	0.103400
0.06139634	15.950000	0.103200
0.06140821	15.950000	0.103200
0.06141998	15.950000	0.103200
0.06143123	15.950000	0.103300
0.06144288	15.950000	0.103300
0.06145440	15.950000	0.102900
0.06146654	15.950000	0.102900
0.06147821	15.950000	0.102900
0.06149000	15.950000	0.103400
0.06150131	15.950000	0.103400
0.06151294	15.950000	0.103400
0.06152579	15.870000	0.103000
0.06153616	15.870000	0.103000
0.06154800	15.870000	0.103000
0.06156583	15.870000	0.103100
0.06157340	15.870000	0.103100
0.06158316	15.870000	0.103100
0.06159487	15.870000	0.103100
0.06160634	15.800000	0.105100
0.06161737	15.800000	0.105100
0.06162948	15.800000	0.105900
0.06164045	15.800000	0.105900
0.06165218	15.800000	0.105900
0.06166352	15.800000	0.106000
0.06167512	15.800000	0.106000
0.06168685	15.800000	0.106000
0.06169850	15.870000	0.106000
0.06171045	15.870000	0.106000
0.06172171	15.870000	0.106000
0.06173330	15.870000	0.106000
0.06174468	15.870000	0.105800
0.06175676	15.870000	0.105800
0.06176803	15.870000	0.105800
0.06177914	15.870000	0.102400
0.06179098	15.870000	0.102400
0.06180244	15.870000	0.102900
0.06181413	15.870000	0.102900
0.06182778	15.870000	0.102900
0.06183738	15.800000	0.102900
0.06184899	15.800000	0.102900
0.06186056	15.800000	0.102900
0.06187243	15.800000	0.102800
0.06188403	15.800000	0.102800
0.06189575	15.800000	0.102800
0.06190728	15.800000	0.102800
0.06191888	15.800000	0.103300
0.06193090	15.800000	0.103300
0.06194216	15.870000	0.103400
0.06195377	15.870000	0.103400
0.06196527	15.870000	0.103400
0.06197683	15.870000	0.103400
0.06198861	15.870000	0.103400
0.06200025	15.870000	0.103400
0.06201191	15.870000	0.103100
0.06202361	15.870000	0.103100
0.06203491	15.870000	0.103100
0.06204694	15.950000	0.103300
0.06205843	15.950000	0.103300
0.06207021	15.950000	0.103300
0.06208153	15.950000	0.103300
0.06209336	15.950000	0.103300
0.06210691	15.950000	0.103300
0.06211655	15.950000	0.102900
0.06212862	15.950000	0.102900
0.06213970	15.950000	0.102900
0.06215134	15.870000	0.103200
0.06216367	15.870000	0.103200
0.06217464	15.870000	0.103200
0.06218610	15.950000	0.103000
0.06219757	15.950000	0.103000
0.06220920	15.950000	0.103000
0.06222072	15.870000	0.102900
0.06223231	15.870000	0.102900
0.06224416	15.870000	0.102900
0.06225553	15.870000	0.102900
0.06226725	15.950000	0.103200
0.06227887	15.950000	0.103200
0.06229021	15.950000	0.103000
0.06230196	15.950000	0.103000
0.06231352	15.950000	0.103000
0.06232517	15.950000	0.103100
0.06233676	15.950000	0.103100
0.06234863	15.950000	0.103100
0.06235995	16.020000	0.103500
0.06237161	16.020000	0.103500
0.06238317	16.020000	0.103500
0.06239459	15.950000	0.103300
0.06240628	15.950000	0.103300
0.06241779	15.950000	0.103300
0.06242979	15.950000	0.103300
0.06244148	15.950000	0.103400
0.06245307	15.950000	0.103400
0.06246490	15.950000	0.103400
0.06247648	15.950000	0.103400
0.06248777	15.950000	0.103400
0.06249953	15.950000	0.103400
0.06251108	15.950000	0.103400
0.06252270	15.950000	0.103400
0.06253436	15.950000	0.103300
0.06254580	15.950000	0.103300
0.06255774	15.950000	0.103300
0.06256929	15.870000	0.103000
0.06258102	15.870000	0.103000
0.06259230	15.870000	0.103000
0.06260432	15.950000	0.103300
0.06261566	15.950000	0.103300
0.06262863	15.950000	0.103300
0.06263894	15.950000	0.103000
0.06265050	15.950000	0.103000
0.06266253	15.950000	0.103000
0.06267367	15.870000	0.102900
0.06268566	15.870000	0.102900
0.06269731	15.870000	0.102900
0.06270885	15.870000	0.102900
0.06272034	15.870000	0.102900
0.06273204	15.870000	0.102900
0.06274358	15.870000	0.103300
0.06275487	15.870000	0.103300
0.06276686	15.870000	0.103300
0.06277813	15.870000	0.103100
0.06278971	15.870000	0.103100
0.06280156	15.870000	0.103100
0.06281304	15.870000	0.102800
0.06282444	15.870000	0.102800
0.06283601	15.870000	0.102800
0.06284770	15.870000	0.102900
0.06285919	15.870000	0.102900
0.06287083	15.870000	0.102900
0.06288270	15.870000	0.103300
0.06289390	15.870000	0.103300
0.06290531	15.870000	0.103300
0.06291716	15.870000	0.103300
0.06292927	15.950000	0.103100
0.06294029	15.950000	0.103100
0.06295185	15.870000	0.103100
0.06296348	15.870000	0.103100
0.06297532	15.870000	0.103100
0.06298670	15.870000	0.103400
0.06299846	15.870000	0.103400
0.06300994	15.870000	0.103400
0.06302212	15.950000	0.103400
0.06303389	15.950000	0.103400
0.06304499	15.950000	0.103400
0.06305684	15.950000	0.103500
0.06306843	15.950000	0.103500
0.06307995	15.950000	0.103100
0.06309152	15.950000	0.103100
0.06310322	15.950000	0.103100
0.06311530	15.950000	0.103100
0.06312639	15.950000	0.103100
0.06313840	15.950000	0.103100
0.06314949	15.950000	0.103100
0.06316112	15.950000	0.103400
0.06317271	15.950000	0.103400
0.06318427	15.950000	0.103400
0.06319587	15.950000	0.103300
0.06320734	15.950000	0.103300
0.06321911	15.950000	0.103300
0.06323068	15.950000	0.103500
0.06324211	15.950000	0.103500
0.06325406	15.950000	0.103200
0.06326611	15.950000	0.103200
0.06327725	15.950000	0.103200
0.06328911	15.950000	0.103200
0.06330073	15.950000	0.103400
0.06331208	15.950000	0.103400
0.06332348	15.950000	0.103400
0.06333522	15.950000	0.103300
0.06334691	15.950000	0.103300
0.06335816	15.950000	0.103300
0.06336994	15.950000	0.103300
0.06338160	15.950000	0.103300
0.06339322	15.950000	0.103300
0.06340480	15.950000	0.103100
0.06341634	15.950000	0.103100
0.06342804	15.950000	0.103100
0.06343958	15.950000	0.103100
0.06345116	15.950000	0.103100
0.06346257	15.950000	0.103100
0.06347418	19.810000	0.167800
0.06348581	19.810000	0.167800
0.06349753	19.810000	0.167800
0.06350949	30.180000	0.277600
0.06352285	30.180000	0.277600
0.06353279	30.180000	0.277600
0.06354434	29.820000	0.278500
0.06355556	29.820000	0.278500
0.06356727	29.960000	0.278900
0.06357877	29.960000	0.278900
0.06359037	29.960000	0.278900
0.06360196	29.960000	0.278900
0.06361762	29.820000	0.278300
0.06362500	29.820000	0.278300
0.06363671	29.820000	0.278300
0.06364822	29.890000	0.278400
0.06366153	29.890000	0.278400
0.06367666	29.890000	0.278400
0.06368688	20.090000	0.168400
0.06369631	20.090000	0.168400
0.06370648	20.090000	0.168400
0.06371796	16.730000	0.109800
0.06372973	16.730000	0.109800
0.06374144	16.660000	0.109800
0.06375274	16.660000	0.109800
0.06376439	16.660000	0.109800
0.06377598	16.660000	0.109800
0.06378785	15.730000	0.102600
0.06379932	15.730000	0.102600
0.06381072	15.730000	0.102600
0.06382397	15.660000	0.102400
0.06383410	15.660000	0.102400
0.06384542	15.660000	0.102400
0.06385729	15.660000	0.102300
0.06386894	15.660000	0.102300
0.06388016	15.660000	0.102300
0.06389203	15.730000	0.102700
0.06390372	15.730000	0.102700
0.06391528	15.800000	0.102700
0.06392678	15.800000	0.102700
0.06393845	15.800000	0.102700
0.06395003	15.800000	0.102700
0.06396155	15.800000	0.102000
0.06397339	15.800000	0.102000
0.06398509	15.800000	0.102000
0.06399711	15.800000	0.102100
0.06400904	15.800000	0.102100
0.06402065	15.800000	0.102100
0.06403172	15.730000	0.102000
0.06404322	15.730000	0.102000
0.06405500	15.730000	0.102000
0.06406638	15.730000	0.101800
0.06407784	15.730000	0.101800
0.06408955	15.730000	0.101900
0.06410137	15.730000	0.101900
0.06411285	15.730000	0.101900
0.06412422	15.730000	0.101900
0.06413601	15.800000	0.102000
0.06414773	15.800000	0.102000
0.06415895	15.800000	0.102000
0.06417069	15.800000	0.102000
0.06418204	15.800000	0.102000
0.06419367	15.800000	0.102000
0.06420554	15.730000	0.102000
0.06421705	15.730000	0.102000
0.06422854	15.730000	0.101900
0.06424024	15.730000	0.101900
0.06425146	15.730000	0.101900
0.06426418	15.730000	0.101900
0.06427481	15.730000	0.101900
0.06428623	15.730000	0.101900
0.06429794	15.730000	0.101900
0.06430947	15.730000	0.101700
0.06432127	15.730000	0.101700
0.06433253	15.730000	0.101700
0.06434420	15.730000	0.101800
0.06435589	15.730000	0.101800
0.06436781	15.730000	0.101800
0.06438166	15.660000	0.101600
0.06439399	15.660000	0.101600
0.06440574	15.730000	0.101700
0.06441459	15.730000	0.101700
0.06443153	15.730000	0.101700
0.06443942	15.730000	0.101800
0.06445229	15.730000	0.101800
0.06446241	15.730000	0.101800
0.06447427	15.730000	0.101800
0.06448736	15.730000	0.101700
0.06449725	15.730000	0.101700
0.06450882	15.730000	0.101700
0.06452056	15.730000	0.101700
0.06453316	15.730000	0.101700
0.06454280	15.730000	0.101700
0.06455439	15.730000	0.101800
0.06456640	15.730000	0.101800
0.06457877	15.730000	0.101700
0.06459228	15.730000	0.101700
0.06460152	15.730000	0.101700
0.06461449	15.730000	0.101900
0.06462405	15.730000	0.101900
0.06463692	15.730000	0.101900
0.06464860	15.730000	0.101900
0.06465877	15.660000	0.101500
0.06467250	15.660000	0.101500
0.06468258	15.660000	0.101500
0.06469279	15.660000	0.101600
0.06470437	15.660000	0.101600
0.06471639	15.590000	0.101600
0.06472788	15.590000	0.101800
0.06473941	15.590000	0.101800
0.06475110	15.590000	0.101300
0.06476243	15.590000	0.101300
0.06477419	15.590000	0.101300
0.06478591	15.590000	0.101600
0.06479749	15.590000	0.101600
0.06480956	15.590000	0.101600
0.06482047	15.590000	0.101600
0.06483227	15.590000	0.101500
0.06484449	15.590000	0.101500
0.06485530	15.590000	0.101500
0.06486690	15.730000	0.101400
0.06487891	15.730000	0.101400
0.06489122	15.730000	0.101400
0.06490281	15.730000	0.101400
0.06491347	15.730000	0.101400
0.06492605	15.730000	0.101600
0.06496050	15.730000	0.101600
0.06496234	15.730000	0.101400
0.06497154	15.730000	0.101400
0.06503192	15.730000	0.101400
0.06503368	15.730000	0.101700
0.06507667	15.730000	0.101400
0.06509050	15.730000	0.101600
0.06510421	15.730000	0.101600
0.06510848	15.730000	0.101600
0.06511309	15.730000	0.101600
0.06512572	15.730000	0.101600
0.06513951	15.730000	0.101500
0.06514762	15.730000	0.101500
0.06515992	15.730000	0.101500
0.06517209	15.730000	0.101500
0.06518352	15.730000	0.101600
0.06519308	15.730000	0.101600
0.06524000	15.660000	0.101500
0.06525461	15.660000	0.101500
0.06525742	15.660000	0.101500
0.06526228	15.660000	0.101500
0.06527348	15.730000	0.101500
0.06528600	15.730000	0.101500
0.06529669	15.730000	0.101500
0.06531981	15.730000	0.101500
0.06532176	15.660000	0.101500
0.06534289	15.660000	0.101500
0.06534477	15.660000	0.101500
0.06535500	15.730000	0.101500
0.06536623	15.730000	0.101500
0.06537769	15.730000	0.101500
0.06539046	15.730000	0.101500
0.06540128	15.730000	0.101500
0.06541302	15.660000	0.101400
0.06542422	15.660000	0.101400
0.06543729	15.660000	0.101400
0.06544836	15.660000	0.101300
0.06545918	15.660000	0.101300
0.06547111	15.660000	0.101300
0.06549478	15.660000	0.101300
0.06549743	15.660000	0.101100
0.06554178	15.660000	0.101100
0.06555806	15.730000	0.101200
0.06556068	15.730000	0.101200
0.06556339	15.730000	0.101200
0.06557490	15.730000	0.101200
0.06558663	15.660000	0.101000
0.06560001	15.660000	0.101000
0.06561119	15.660000	0.101000
0.06562191	15.660000	0.101000
0.06563439	15.660000	0.101000
0.06564472	15.660000	0.101000
0.06565640	15.660000	0.101000
0.06566807	15.660000	0.101000
0.06567955	15.660000	0.101000
0.06569133	15.730000	0.101000
0.06570273	15.730000	0.101300
0.06571444	15.730000	0.101300
0.06572598	15.660000	0.101400
0.06573740	15.660000	0.101400
0.06574959	15.660000	0.101400
0.06576098	15.730000	0.101500
0.06577260	15.730000	0.101500
0.06578388	15.730000	0.101500
0.06579601	15.660000	0.101500
0.06580729	15.660000	0.101500
0.06581882	15.660000	0.101500
0.06583035	15.660000	0.101500
0.06584208	15.660000	0.101300
0.06585390	15.660000	0.101300
0.06586510	15.730000	0.101500
0.06587728	15.730000	0.101500
0.06588832	15.730000	0.101500
0.06590029	15.730000	0.101400
0.06591152	15.730000	0.101400
0.06592338	15.730000	0.101400
0.06593503	15.730000	0.101500
0.06594671	15.730000	0.101500
0.06595834	15.730000	0.101500
0.06597001	15.730000	0.101200
0.06598163	15.730000	0.101200
0.06599343	15.730000	0.101200
0.06600466	15.730000	0.101200
0.06601602	15.730000	0.101400
0.06602774	15.730000	0.101400
0.06603928	15.730000	0.101500
0.06605075	15.730000	0.101500
0.06606270	15.730000	0.101500
0.06607417	15.730000	0.101700
0.06608575	15.730000	0.101700
0.06609734	15.730000	0.101700
0.06610883	15.730000	0.101500
0.06612053	15.730000	0.101500
0.06613422	15.730000	0.101500
0.06614374	15.730000	0.101400
0.06615538	15.730000	0.101400
0.06616708	15.730000	0.101400
0.06618012	15.730000	0.101400
0.06619051	15.730000	0.101400
0.06620286	15.730000	0.101400
0.06621529	15.730000	0.101500
0.06622541	15.730000	0.101500
0.06623782	15.730000	0.101500
0.06625212	15.730000	0.101600
0.06626176	15.730000	0.101600
0.06628397	15.730000	0.101600
0.06628659	15.730000	0.101700
0.06640057	15.730000	0.101700
0.06641438	15.730000	0.101700
0.06645366	15.730000	0.101800
0.06645696	15.660000	0.101400
0.06645951	15.660000	0.101400
0.06672503	15.660000	0.101400
0.06673896	15.660000	0.101900
0.06675257	15.660000	0.101900
0.06675420	15.660000	0.101900
0.06675882	15.660000	0.101900
0.06677028	15.660000	0.101700
0.06683082	15.730000	0.102000
0.06683315	15.730000	0.102000
0.06688645	15.730000	0.102000
0.06688863	15.660000	0.101700
0.06689784	15.660000	0.101700
0.06690959	15.660000	0.101700
0.06692139	15.660000	0.101700
0.06693266	15.660000	0.101700
0.06694440	15.660000	0.101700
0.06695589	15.660000	0.101700
0.06696770	15.660000	0.101700
0.06697885	15.590000	0.101500
0.06699130	15.590000	0.101500
0.06700251	15.590000	0.101500
0.06701383	15.660000	0.101800
0.06702557	15.660000	0.101800
0.06703712	15.660000	0.101800
0.06704856	15.590000	0.101400
0.06706037	15.590000	0.101400
0.06707191	15.590000	0.101400
0.06708345	15.590000	0.101400
0.06709478	15.590000	0.101400
0.06710627	15.590000	0.101400
0.06711792	15.660000	0.101600
0.06712999	15.660000	0.101600
0.06714120	15.660000	0.101600
0.06715256	15.660000	0.101300
0.06716404	15.660000	0.101300
0.06717572	15.660000	0.101300
0.06718781	15.660000	0.101700
0.06720101	15.660000	0.101700
0.06721057	15.660000	0.101700
0.06722280	15.660000	0.101700
0.06723486	15.660000	0.101700
0.06724578	15.660000	0.101700
0.06725758	4.140000	0.056600
0.06726932	4.140000	0.056600
0.06728096	4.140000	0.056600
0.06729302	4.140000	0.056400
0.06730478	4.140000	0.056400
0.06731955	4.140000	0.056400
0.06733831	4.220000	0.055600
0.06734035	4.220000	0.055600
0.06735075	4.220000	0.055600
0.06736226	4.220000	0.055800
0.06737395	4.220000	0.055800
0.06738549	4.220000	0.055800
0.06739748	4.220000	0.055900
0.06740928	4.220000	0.055900
0.06742192	4.220000	0.055900
0.06743192	4.220000	0.055800
0.06744332	4.220000	0.055800
0.06745500	4.220000	0.055800
0.06746670	4.140000	0.055900
0.06747826	4.140000	0.055900
0.06748988	4.140000	0.055900
0.06750193	4.140000	0.055800
0.06751306	4.140000	0.055800
0.06752469	4.140000	0.055800
0.06753653	4.140000	0.055500
0.06754843	4.140000	0.055500
0.06755981	4.140000	0.055500
0.06757172	4.220000	0.056400
0.06758350	4.220000	0.056400
0.06759454	4.220000	0.056400
0.06760604	4.140000	0.055900
0.06761793	4.140000	0.055900
0.06762940	4.140000	0.055900
0.06764105	4.140000	0.055900
0.06765240	4.140000	0.055900
0.06766405	4.220000	0.056300
0.06767632	4.220000	0.056300
0.06768763	4.220000	0.056300
0.06769971	4.220000	0.056300
0.06771154	4.220000	0.055400
0.06772470	4.220000	0.055400
0.06773459	4.220000	0.055400
0.06774562	4.220000	0.055400
0.06775719	4.220000	0.055400
0.06776902	4.220000	0.055400
0.06778053	4.140000	0.056000
0.06779272	4.140000	0.056000
0.06780366	4.140000	0.056000
0.06781542	4.140000	0.056000
0.06782697	4.140000	0.056000
0.06783897	4.220000	0.056100
0.06785027	4.220000	0.056100
0.06786154	4.220000	0.056100
0.06787324	4.220000	0.056100
0.06788476	4.220000	0.056000
0.06789626	4.220000	0.056000
0.06790786	4.220000	0.056000
0.06791966	4.220000	0.056500
0.06793150	4.220000	0.056500
0.06794346	4.220000	0.056500
0.06795464	4.220000	0.056600
0.06796617	4.220000	0.056600
0.06797751	4.220000	0.056600
0.06798939	4.140000	0.056500
0.06800103	4.140000	0.056500
0.06801272	4.220000	0.056100
0.06802736	4.220000	0.056100
0.06803560	4.220000	0.056100
0.06804730	4.220000	0.056100
0.06805892	4.220000	0.056000
0.06807075	4.220000	0.056000
0.06808214	4.220000	0.056000
0.06809387	4.220000	0.056100
0.06810523	4.220000	0.056100
0.06811664	4.220000	0.056100
0.06812847	4.140000	0.055600
0.06814002	4.140000	0.055600
0.06815179	4.140000	0.055600
0.06816373	4.220000	0.055800
0.06817595	4.220000	0.055800
0.06818675	4.220000	0.055800
0.06819855	4.220000	0.055800
0.06821043	4.220000	0.055800
0.06822168	4.220000	0.055800
0.06823311	4.220000	0.055200
0.06824469	4.220000	0.055200
0.06825642	4.220000	0.055200
0.06826796	4.220000	0.055900
0.06827953	4.220000	0.055900
0.06829110	4.220000	0.055900
0.06830473	4.220000	0.055700
0.06831534	4.220000	0.055700
0.06832646	4.220000	0.055700
0.06833736	4.220000	0.055800
0.06834926	4.220000	0.055800
0.06836044	4.220000	0.055800
0.06837205	4.220000	0.055800
0.06838374	4.220000	0.055800
0.06839538	4.220000	0.055800
0.06840708	4.220000	0.055900
0.06841875	4.220000	0.055900
0.06843034	4.220000	0.055900
0.06844182	4.220000	0.055700
0.06845353	4.220000	0.055700
0.06846529	4.220000	0.055700
0.06847647	4.140000	0.055700
0.06848848	4.140000	0.055700
0.06849949	4.220000	0.055900
0.06851154	4.220000	0.055900
0.06852389	4.220000	0.055900
0.06853586	4.220000	0.055900
0.06854730	4.220000	0.055900
0.06855913	4.220000	0.055900
0.06856912	4.220000	0.055900
0.06858252	4.220000	0.055700
0.06859215	4.220000	0.055700
0.06860381	4.220000	0.055700
0.06861521	4.220000	0.055600
0.06862760	4.220000	0.055600
0.06863889	4.220000	0.055600
0.06865027	4.220000	0.055400
0.06866172	4.220000	0.055400
0.06867333	4.220000	0.055900
0.06868485	4.220000	0.055900
0.06869656	4.220000	0.055900
0.06870789	4.140000	0.055900
0.06871993	4.140000	0.055900
0.06873142	4.140000	0.055900
0.06874308	4.140000	0.055900
0.06875501	4.220000	0.055800
0.06876711	4.220000	0.055800
0.06877822	4.220000	0.055800
0.06879030	4.140000	0.055700
0.06880152	4.140000	0.055700
0.06881497	4.140000	0.055700
0.06882469	4.220000	0.056200
0.06883653	4.220000	0.056200
0.06884894	4.220000	0.055500
0.06886014	4.220000	0.055500
0.06887346	4.220000	0.055500
0.06888325	4.220000	0.055700
0.06889499	4.220000	0.055700
0.06890639	4.220000	0.055700
0.06891956	4.220000	0.055700
0.06892972	4.140000	0.055700
0.06894150	4.140000	0.055700
0.06895233	4.140000	0.055700
0.06896464	4.140000	0.055800
0.06897561	4.140000	0.055800
0.06898758	4.140000	0.055800
0.06900086	4.140000	0.055900
0.06901089	4.140000	0.055900
0.06902226	4.220000	0.055700
0.06903420	4.220000	0.055700
0.06904531	4.220000	0.055700
0.06909171	4.220000	0.055900
0.06909337	4.220000	0.056100
0.06910303	4.220000	0.056100
0.06911483	4.220000	0.056100
0.06912662	4.220000	0.056100
0.06913824	4.140000	0.056000
0.06915003	4.140000	0.056000
0.06916137	4.220000	0.055600
0.06917307	4.220000	0.055600
0.06918442	4.220000	0.055600
0.06919617	4.220000	0.055700
0.06920793	4.220000	0.055700
0.06921922	4.220000	0.055700
0.06923126	4.220000	0.055800
0.06924306	4.220000	0.055800
0.06925471	4.220000	0.055800
0.06926622	4.220000	0.055800
0.06927809	4.220000	0.055800
0.06928957	4.220000	0.055800
0.06930167	4.220000	0.055800
0.06931273	4.220000	0.055600
0.06932444	4.220000	0.055600
0.06933624	4.220000	0.055600
0.06934767	4.220000	0.055600
0.06935939	4.220000	0.055600
0.06937075	4.140000	0.055600
0.06938213	4.140000	0.055600
0.06939390	4.140000	0.055600
0.06940530	4.220000	0.056100
0.06941723	4.220000	0.056100
0.06942866	4.220000	0.056100
0.06944054	4.220000	0.056100
0.06945216	4.140000	0.055800
0.06946350	4.140000	0.055800
0.06947519	4.140000	0.055800
0.06948675	4.140000	0.055500
0.06949823	4.140000	0.055500
0.06950983	4.220000	0.055900
0.06952166	4.220000	0.055900
0.06953318	4.220000	0.055900
0.06954470	4.220000	0.055500
0.06955642	4.220000	0.055500
0.06956869	4.220000	0.055500
0.06957979	4.220000	0.055600
0.06959160	4.220000	0.055600
0.06960429	4.220000	0.055600
0.06961899	4.140000	0.055700
0.06962678	4.140000	0.055700
0.06964031	4.140000	0.055700
0.06964963	4.220000	0.055700
0.06966113	4.220000	0.055800
0.06967275	4.220000	0.055800
0.06968436	4.140000	0.055700
0.06969590	4.140000	0.055700
0.06970738	4.140000	0.055700
0.06971889	4.220000	0.056400
0.06973066	4.220000	0.056400
0.06974198	4.220000	0.056400
0.06975377	4.220000	0.056000
0.06976521	4.220000	0.056000
0.06977725	4.220000	0.056000
0.06978851	4.220000	0.056000
0.06980042	4.140000	0.056200
0.06981227	4.140000	0.056200
0.06982376	4.140000	0.056200
0.06983516	4.140000	0.056200
0.06984657	4.140000	0.056200
0.06985821	4.140000	0.056300
0.06986987	4.140000	0.056300
0.06988154	4.140000	0.056300
0.06989394	4.220000	0.056200
0.06990434	4.220000	0.056200
0.06991598	4.220000	0.056200
0.06992764	4.140000	0.056100
0.06993910	4.140000	0.056100
0.06995066	4.140000	0.056100
0.06996240	4.140000	0.056100
0.06997377	4.140000	0.055400
0.06998542	4.140000	0.055400
0.06999713	4.140000	0.055400
0.07001035	4.140000	0.055400
0.07002001	4.140000	0.055400
0.07003175	4.220000	0.055800
0.07004351	4.220000	0.055800
0.07005509	4.220000	0.055800
0.07006646	4.140000	0.055400
0.07007797	4.140000	0.055400
0.07008957	4.140000	0.055400
0.07010113	4.140000	0.055400
0.07011337	4.140000	0.055800
0.07012429	4.140000	0.055800
0.07013601	4.140000	0.055800
0.07014777	4.140000	0.055600
0.07015906	4.140000	0.055600
0.07017103	4.140000	0.055500
0.07018299	4.140000	0.055500
0.07019567	4.140000	0.055500
0.07020558	4.140000	0.055600
0.07021811	4.140000	0.055600
0.07022897	4.140000	0.055600
0.07024119	4.220000	0.055500
0.07025194	4.220000	0.055500
0.07026747	4.220000	0.055500
0.07027509	4.220000	0.055500
0.07028638	4.140000	0.055600
0.07029831	4.140000	0.055600
0.07030990	4.220000	0.055600
0.07032245	4.220000	0.056200
0.07033463	4.220000	0.056200
0.07034512	4.140000	0.057900
0.07035677	4.140000	0.057900
0.07036819	4.140000	0.057900
0.07037918	4.220000	0.057500
0.07039087	4.220000	0.057500
0.07040260	4.220000	0.057500
0.07041539	4.220000	0.057400
0.07042890	4.220000	0.057400
0.07044468	4.220000	0.057400
0.07045110	4.140000	0.055300
0.07046084	4.140000	0.055300
0.07047181	4.140000	0.055300
0.07048334	4.220000	0.055400
0.07049625	4.220000	0.055400
0.07050693	4.220000	0.055400
0.07051925	4.220000	0.055600
0.07053100	4.220000	0.055600
0.07054221	4.220000	0.055600
0.07055411	4.220000	0.056100
0.07056529	4.220000	0.056100
0.07057670	4.220000	0.056100
0.07058810	4.220000	0.056500
0.07059972	4.220000	0.056500
0.07061281	4.220000	0.056500
0.07062315	4.220000	0.056500
0.07063564	4.220000	0.057200
0.07064639	4.220000	0.057200
0.07065832	4.220000	0.056900
0.07066902	4.220000	0.056900
0.07068106	4.220000	0.056900
0.07069231	4.140000	0.056600
0.07070376	4.140000	0.056600
0.07071552	4.140000	0.056600
0.07072751	4.140000	0.056600
0.07073899	4.140000	0.056600
0.07075235	4.140000	0.056600
0.07076476	4.140000	0.058400
0.07077478	4.140000	0.058400
0.07078683	4.140000	0.058400
0.07079681	4.140000	0.058400
0.07080887	4.140000	0.055900
0.07082100	4.140000	0.055900
0.07083166	4.220000	0.055900
0.07084299	4.220000	0.055900
0.07085527	4.220000	0.055900
0.07086983	4.220000	0.055700
0.07088985	4.220000	0.055700
0.07089209	4.220000	0.055700
0.07090108	4.220000	0.055700
0.07091280	4.220000	0.055700
0.07095946	4.220000	0.055700
0.07096134	4.140000	0.055800
0.07100528	4.140000	0.055800
0.07101940	4.140000	0.056000
0.07103334	4.140000	0.056000
0.07107007	4.140000	0.056000
0.07107353	4.220000	0.056100
0.07107597	4.220000	0.055800
0.07108644	4.220000	0.055800
0.07109836	4.220000	0.055800
0.07112208	4.140000	0.055700
0.07112600	4.140000	0.055700
0.07113484	4.140000	0.055700
0.07118039	4.140000	0.055800
0.07118348	4.220000	0.055800
0.07119421	4.220000	0.055800
0.07120959	4.220000	0.055800
0.07121523	4.220000	0.055700
0.07126064	4.220000	0.055700
0.07127573	4.220000	0.055600
0.07127920	4.220000	0.055600
0.07128311	4.220000	0.055600
0.07129670	4.140000	0.055600
0.07130809	4.140000	0.055600
0.07133109	4.140000	0.055900
0.07134534	4.140000	0.055900
0.07135081	4.220000	0.055700
0.07135473	4.220000	0.055700
0.07136391	4.220000	0.055700
0.07137736	4.220000	0.055700
0.07138821	4.140000	0.055600
0.07139869	4.140000	0.055600
0.07141029	4.140000	0.055600
0.07142199	4.220000	0.055500
0.07143372	4.220000	0.055500
0.07144536	4.220000	0.055500
0.07145685	4.220000	0.055500
0.07146914	4.220000	0.055500
0.07148094	4.220000	0.055500
0.07149162	4.220000	0.055800
0.07150306	4.220000	0.055800
0.07151517	4.220000	0.055800
0.07152627	4.140000	0.056000
0.07153780	4.140000	0.056000
0.07154956	4.140000	0.056000
0.07156189	4.220000	0.055900
0.07157259	4.220000	0.055900
0.07158418	4.220000	0.055900
0.07163050	4.140000	0.055800
0.07163231	4.140000	0.055700
0.07164227	4.140000	0.055700
0.07165362	4.140000	0.055700
0.07166528	4.220000	0.055800
0.07167691	4.220000	0.055800
0.07168868	4.220000	0.055800
0.07170031	4.220000	0.055800
0.07171182	4.220000	0.055800
0.07172326	4.220000	0.055800
0.07173490	4.220000	0.056200
0.07174661	4.220000	0.056200
0.07175865	4.220000	0.056200
0.07176980	4.220000	0.056200
0.07178477	4.220000	0.056200
0.07179308	4.220000	0.056200
0.07180441	4.220000	0.056200
0.07183417	4.140000	0.056100
0.07183697	4.140000	0.056100
0.07183933	4.140000	0.056100
0.07185236	4.140000	0.056100
0.07189896	4.140000	0.056100
0.07190285	4.140000	0.055700
0.07190991	4.220000	0.055700
0.07192109	4.220000	0.055700
0.07193223	4.220000	0.055700
0.07194391	4.220000	0.055800
0.07199037	4.220000	0.055800
0.07200453	4.140000	0.055800
0.07200706	4.140000	0.055800
0.07204823	4.140000	0.055800
0.07208543	4.220000	0.056000
0.07212416	4.140000	0.055900
0.07213037	4.220000	0.055500
0.07213203	4.220000	0.055500
0.07214113	4.220000	0.055500
0.07215218	4.220000	0.055900
0.07216410	4.220000	0.055900
0.07217523	4.220000	0.055900
0.07218785	4.220000	0.055900
0.07219962	4.220000	0.055900
0.07221190	4.220000	0.055900
0.07222485	4.220000	0.056000
0.07223561	4.220000	0.056000
0.07224560	4.220000	0.056000
0.07225822	4.140000	0.055700
0.07226939	4.140000	0.055700
0.07228075	4.140000	0.055700
0.07229194	4.220000	0.055700
0.07230328	4.220000	0.055700
0.07231677	4.220000	0.055700
0.07232693	4.220000	0.055900
0.07233785	4.220000	0.055900
0.07234910	4.220000	0.055900
0.07236113	4.220000	0.056100
0.07237252	4.220000	0.056100
0.07238403	4.220000	0.056100
0.07239561	4.220000	0.056300
0.07240728	4.220000	0.056300
0.07241890	4.220000	0.056300
0.07243045	4.140000	0.056400
0.07244201	4.140000	0.056400
0.07245346	4.140000	0.056400
0.07246539	4.140000	0.056400
0.07247684	4.140000	0.055800
0.07248826	4.140000	0.055800
0.07249991	4.220000	0.056300
0.07251163	4.220000	0.056300
0.07252314	4.220000	0.056300
0.07253455	4.140000	0.056200
0.07254609	4.140000	0.056200
0.07255804	4.140000	0.056200
0.07258144	4.220000	0.056300
0.07259618	4.220000	0.056300
0.07259855	4.220000	0.056300
0.07260424	4.220000	0.055600
0.07266293	4.220000	0.055600
0.07266792	4.220000	0.055800
0.07267917	4.220000	0.055800
0.07268531	4.220000	0.055800
0.07269663	4.220000	0.055800
0.07270851	4.220000	0.055900
0.07272167	4.220000	0.055900
0.07273267	4.220000	0.055900
0.07274648	4.140000	0.055700
0.07276745	4.140000	0.055700
0.07277205	4.140000	0.055700
0.07277983	4.220000	0.056000
0.07279215	4.220000	0.056000
0.07281264	4.140000	0.056000
0.07281501	4.140000	0.056000
0.07282414	4.140000	0.056000
0.07283657	4.140000	0.056000
0.07284823	4.140000	0.056100
0.07285927	4.140000	0.056100
0.07287156	4.140000	0.056100
0.07288309	4.220000	0.055900
0.07289464	4.220000	0.055900
0.07290615	4.220000	0.055900
0.07291777	4.140000	0.055800
0.07294102	4.140000	0.055800
0.07294365	4.140000	0.055800
0.07298686	4.220000	0.056100
0.07298905	4.140000	0.056000
0.07299889	4.140000	0.056000
0.07301042	4.140000	0.056000
0.07302206	4.140000	0.055800
0.07303388	4.140000	0.055800
0.07304534	4.140000	0.055800
0.07305672	4.220000	0.055900
0.07310354	4.220000	0.055900
0.07310600	4.070000	0.054400
0.07311478	4.070000	0.054700
0.07312638	4.070000	0.054700
0.07313775	4.070000	0.054700
0.07314957	4.070000	0.054700
0.07316089	4.070000	0.054500
0.07317257	4.070000	0.054500
0.07318426	4.070000	0.054500
0.07319581	4.070000	0.054700
0.07320727	4.070000	0.054700
0.07321876	4.070000	0.054700
0.07323043	4.000000	0.054600
0.07324200	4.000000	0.054600
0.07325374	4.000000	0.054600
0.07326529	4.000000	0.054800
0.07331191	4.000000	0.054800
0.07338370	3.710000	0.050800
0.07338590	4.360000	0.058600
0.07339285	4.360000	0.058600
0.07344019	3.710000	0.051400
0.07348184	3.710000	0.051100
0.07353115	3.710000	0.051200
0.07353369	3.710000	0.051200
0.07354420	3.640000	0.051000
0.07355568	3.640000	0.051000
0.07356774	3.640000	0.051000
0.07357949	3.710000	0.051000
0.07359135	3.710000	0.051000
0.07360265	3.710000	0.051000
0.07361389	3.710000	0.051400
0.07362536	3.710000	0.051400
0.07363693	3.710000	0.051000
0.07366056	3.710000	0.051000
0.07366291	3.710000	0.051000
0.07367170	3.710000	0.051000
0.07368314	3.710000	0.050700
0.07369471	3.710000	0.050700
0.07370688	3.710000	0.050700
0.07371822	3.710000	0.050900
0.07373024	3.710000	0.050900
0.07374171	3.710000	0.050900
0.07375328	3.710000	0.050900
0.07376479	3.710000	0.050900
0.07381148	3.710000	0.050800
0.07381352	3.710000	0.050900
0.07382274	3.710000	0.050900
0.07383429	3.710000	0.050900
0.07384598	3.710000	0.050900
0.07385743	3.710000	0.051000
0.07386899	3.710000	0.051000
0.07392716	3.710000	0.051200
0.07396420	3.710000	0.051200
0.07396674	3.640000	0.051100
0.07397385	3.640000	0.051100
0.07398536	3.710000	0.051100
0.07399755	3.710000	0.051100
0.07400836	3.710000	0.051100
0.07402019	3.710000	0.051100
0.07403163	3.640000	0.050800
0.07404333	3.640000	0.050800
0.07405501	3.640000	0.050800
0.07406633	3.710000	0.051400
0.07409022	3.710000	0.051400
0.07409294	3.710000	0.051400
0.07410105	0.710000	0.027500
0.07411288	0.710000	0.027500
0.07412453	0.140000	0.023400
0.07413611	0.140000	0.023400
0.07414726	0.140000	0.023400
0.07415927	0.140000	0.023500
0.07417034	0.140000	0.023500
0.07418230	0.140000	0.023500
0.07419377	0.140000	0.023500
0.07420659	0.210000	0.023400
0.07421708	0.210000	0.023400
0.07422841	0.210000	0.023400
0.07423986	0.210000	0.023500
0.07425244	0.210000	0.023500
0.07426319	0.210000	0.023400
0.07427501	0.210000	0.023400
0.07428660	0.210000	0.023400
0.07429799	0.140000	0.023400
0.07430965	0.140000	0.023400
0.07432125	0.140000	0.023400
0.07433306	0.140000	0.023400
0.07472733	0.140000	0.023400
0.07481402	0.140000	0.023500
0.07486311	0.140000	0.023300
0.07486547	0.210000	0.023400
0.07486799	0.210000	0.023400
0.07487844	0.210000	0.023400
0.07516856	0.140000	0.023400
0.07517056	0.140000	0.023500
0.07517938	0.140000	0.023500
0.07522549	0.140000	0.023500
0.07522786	0.140000	0.023500
0.07523709	0.140000	0.023500
0.07528345	0.140000	0.023500
0.07535544	0.140000	0.023500
0.07535836	0.140000	0.023500
0.07536534	0.140000	0.023500
0.07538910	0.140000	0.023500
0.07539141	3.790000	0.051500
0.07540106	3.790000	0.051500
0.07541935	3.790000	0.051500
0.07542350	3.790000	0.051500
0.07543499	3.790000	0.051500
0.07544666	3.710000	0.050900
0.07545836	3.710000	0.050900
0.07546979	3.710000	0.050900
0.07548211	3.710000	0.050800
0.07553199	3.710000	0.050800
0.07553470	3.710000	0.051100
0.07557678	3.710000	0.051100
0.07558067	3.710000	0.051000
0.07558628	3.710000	0.051000
0.07560957	3.710000	0.051000
0.07561203	3.710000	0.051000
0.07562035	3.710000	0.051100
0.07563293	3.710000	0.051100
0.07564444	3.710000	0.051100
0.07565562	3.710000	0.051000
0.07566694	3.710000	0.051000
0.07567837	3.710000	0.051000
0.07569001	3.710000	0.051000
0.07570169	3.640000	0.051300
0.07571343	3.640000	0.051300
0.07572503	3.640000	0.051300
0.07573978	3.710000	0.051000
0.07574823	3.710000	0.051000
0.07575988	3.640000	0.051600
0.07577115	3.640000	0.051600
0.07578270	3.640000	0.051600
0.07579444	3.710000	0.051600
0.07580608	3.710000	0.051600
0.07583138	3.710000	0.051600
0.07584201	3.710000	0.051400
0.07585003	3.710000	0.051400
0.07585928	3.710000	0.051400
0.07598179	3.710000	0.051500
0.07598552	3.710000	0.050900
0.07599144	3.710000	0.050900
0.07600253	3.710000	0.051100
0.07601410	3.710000	0.051100
0.07602547	3.710000	0.051100
0.07603731	3.710000	0.051100
0.07604863	3.710000	0.050900
0.07606021	3.710000	0.050900
0.07607190	3.710000	0.050900
0.07608373	3.710000	0.050900
0.07609523	3.710000	0.050900
0.07610927	0.420000	0.024700
0.07612810	0.420000	0.024700
0.07613350	0.420000	0.024700
0.07614265	0.140000	0.023500
0.07615632	0.140000	0.023500
0.07616674	0.140000	0.023500
0.07617962	0.140000	0.023400
0.07619243	0.140000	0.023400
0.07620166	0.140000	0.023400
0.07621606	0.140000	0.023400
0.07622568	0.140000	0.023500
0.07623666	0.140000	0.023500
0.07624644	0.140000	0.023400
0.07625882	0.140000	0.023400
0.07627213	0.140000	0.023400
0.07628083	0.140000	0.023500
0.07629576	0.140000	0.023500
0.07631023	0.140000	0.023500
0.07631762	0.140000	0.023500
0.07632925	0.140000	0.023500
0.07634280	0.140000	0.023500
0.07635324	0.140000	0.023500
0.07636568	0.140000	0.023500
0.07637464	0.140000	0.023500
0.07638519	0.140000	0.023500
0.07639597	0.140000	0.023400
0.07640806	0.140000	0.023400
0.07641934	0.140000	0.023500
0.07643110	0.140000	0.023500
0.07644258	0.140000	0.023500
0.07645440	0.140000	0.023500
0.07647039	0.140000	0.023500
0.07648331	0.140000	0.023500
0.07648884	0.140000	0.023400
0.07650067	0.140000	0.023400
0.07651244	0.140000	0.023400
0.07652376	0.140000	0.023400
0.07653517	0.140000	0.023500
0.07654750	0.140000	0.023500
0.07655836	0.140000	0.023300
0.07657255	0.140000	0.023300
0.07658431	0.140000	0.023300
0.07660348	0.140000	0.023400
0.07660937	0.140000	0.023400
0.07661679	0.140000	0.023400
0.07664406	0.140000	0.023400
0.07665424	0.140000	0.023400
0.07669556	0.140000	0.023400
0.07670389	4.140000	0.056600
0.07675118	4.140000	0.056600
0.07675600	4.140000	0.056400
0.07676263	4.140000	0.056400
0.07676929	4.140000	0.055800
0.07678169	4.140000	0.055800
0.07679097	4.140000	0.055800
0.07680300	5.290000	0.069700
0.07681431	5.290000	0.069700
0.07682583	5.290000	0.069700
0.07683796	10.010000	0.114500
0.07684942	10.010000	0.114500
0.07686113	10.010000	0.114500
0.07687285	10.010000	0.114500
0.07688444	7.720000	0.094200
0.07689512	7.720000	0.094200
0.07690648	4.070000	0.056000
0.07691888	4.070000	0.056000
0.07693047	4.070000	0.056000
0.07694146	4.070000	0.056300
0.07695411	4.070000	0.056300
0.07696442	4.070000	0.056300
0.07697618	4.070000	0.054700
0.07698816	4.070000	0.054700
0.07699956	4.070000	0.054700
0.07701175	4.070000	0.055200
0.07702201	4.070000	0.055200
0.07703572	4.070000	0.055200
0.07704785	4.070000	0.055200
0.07706553	4.070000	0.055100
0.07707362	4.070000	0.055100
0.07708355	4.070000	0.055300
0.07709351	4.070000	0.055300
0.07710345	4.070000	0.055300
0.07711480	4.140000	0.055500
0.07723100	4.140000	0.055500
0.07723284	3.710000	0.051000
0.07724351	3.710000	0.051000
0.07725649	3.710000	0.051400
0.07727749	3.710000	0.051400
0.07728169	3.710000	0.051400
0.07729868	3.710000	0.051300
0.07733846	3.710000	0.051300
0.07734111	3.710000	0.051100
0.07734721	3.710000	0.051100
0.07735821	3.710000	0.051100
0.07736920	3.710000	0.050400
0.07738095	3.710000	0.050400
0.07739237	3.710000	0.051100
0.07740392	3.710000	0.051100
0.07741563	3.710000	0.051100
0.07742711	3.710000	0.051100
0.07743872	3.710000	0.051100
0.07745053	3.710000	0.051100
0.07746176	3.710000	0.051100
0.07747340	3.710000	0.051100
0.07748491	3.710000	0.051100
0.07749655	3.710000	0.051400
0.07751299	3.710000	0.051400
0.07752582	3.710000	0.051400
