#Measurement data
#8-5-22 11:41:32

#Time (days)	Power (W)	Current (A)
0.000005	1.640000	0.079900
0.000021	1.640000	0.079900
0.000031	1.640000	0.079900
0.000042	1.640000	0.080000
0.000056	1.640000	0.080000
0.000064	1.710000	0.080200
0.000077	1.710000	0.080200
0.000088	1.710000	0.080200
0.000100	1.640000	0.080000
0.000112	1.640000	0.080000
0.000124	1.640000	0.080000
0.000135	1.640000	0.080100
0.000146	1.640000	0.080100
0.000158	1.640000	0.080100
0.000170	1.640000	0.080000
0.000183	1.640000	0.080000
0.000194	1.640000	0.080000
0.000204	1.640000	0.080000
0.000216	1.640000	0.080000
0.000228	1.640000	0.080000
0.000241	1.640000	0.080100
0.000250	1.640000	0.080100
0.000262	1.640000	0.080100
0.000275	1.640000	0.080100
0.000286	1.640000	0.080100
0.000297	1.640000	0.080100
0.000309	1.640000	0.080100
0.000320	1.640000	0.080100
0.000332	1.640000	0.080100
0.000344	50.710000	0.316900
0.000355	50.710000	0.316900
0.000367	50.710000	0.316900
0.000378	53.280000	0.327500
0.000390	53.280000	0.327500
0.000401	53.280000	0.327500
0.000413	51.920000	0.322100
0.000425	51.920000	0.322100
0.000437	51.920000	0.322100
0.000448	41.910000	0.279900
0.000459	41.910000	0.279900
0.000471	41.910000	0.279900
0.000483	41.480000	0.276000
0.000496	41.480000	0.276000
0.000505	41.480000	0.276000
0.000517	48.270000	0.306300
0.000529	48.270000	0.306300
0.000541	48.270000	0.306300
0.000553	39.830000	0.268300
0.000563	39.830000	0.268300
0.000575	39.830000	0.268300
0.000587	39.830000	0.267800
0.000599	39.830000	0.267800
0.000611	39.830000	0.267800
0.000621	39.690000	0.266100
0.000634	39.690000	0.266100
0.000645	39.690000	0.266100
0.000659	38.690000	0.261800
0.000668	38.690000	0.261800
0.000678	38.690000	0.261800
0.000690	38.830000	0.261300
0.000703	38.830000	0.261300
0.000716	38.830000	0.261300
0.000727	40.840000	0.274000
0.000736	40.840000	0.274000
0.000752	40.840000	0.274000
0.000764	43.840000	0.285000
0.000774	43.840000	0.285000
0.000784	43.840000	0.285000
0.000797	67.010000	0.387200
0.000808	67.010000	0.387200
0.000819	67.010000	0.387200
0.000830	40.760000	0.271400
0.000844	40.760000	0.271400
0.000855	32.970000	0.271400
0.000866	32.970000	0.271400
0.000876	32.970000	0.236900
0.000888	32.970000	0.236900
0.000900	72.590000	0.444900
0.000912	72.590000	0.444900
0.000925	72.590000	0.444900
0.000934	96.840000	0.502500
0.000948	96.840000	0.502500
0.000958	96.840000	0.502500
0.000970	71.090000	0.409000
0.000981	71.090000	0.409000
0.000992	71.090000	0.409000
0.001004	127.600000	0.638600
0.001016	127.600000	0.638600
0.001028	127.600000	0.638600
0.001039	127.600000	0.638600
0.001050	127.600000	0.638600
0.001062	127.600000	0.638600
0.001075	95.840000	0.497100
0.001088	95.840000	0.497100
0.001097	95.840000	0.497100
0.001109	70.590000	0.394300
0.001120	70.590000	0.394300
0.001131	70.590000	0.394300
0.001143	86.680000	0.467800
0.001155	86.680000	0.467800
0.001167	86.680000	0.467800
0.001179	78.030000	0.426100
0.001192	78.030000	0.426100
0.001204	74.380000	0.410900
0.001213	74.380000	0.410900
0.001225	74.380000	0.410900
0.001235	74.380000	0.410900
0.001247	135.610000	0.668800
0.001259	135.610000	0.668800
0.001271	135.610000	0.668800
0.001283	112.650000	0.577500
0.001298	112.650000	0.577500
0.001310	112.650000	0.577500
0.001322	104.350000	0.534200
0.001336	104.350000	0.534200
0.001341	104.350000	0.534200
0.001359	101.420000	0.522700
0.001363	101.420000	0.522700
0.001378	101.420000	0.522700
0.001389	98.630000	0.514800
0.001398	98.630000	0.514800
0.001410	98.630000	0.514800
0.001422	76.030000	0.417900
0.001433	76.030000	0.417900
0.001445	76.030000	0.417900
0.001456	67.230000	0.398500
0.001468	67.230000	0.398500
0.001481	67.230000	0.398500
0.001494	69.300000	0.393200
0.001503	69.300000	0.393200
0.001513	65.580000	0.393200
0.001524	65.580000	0.375400
0.001538	65.580000	0.375400
0.001549	65.580000	0.375400
0.001560	64.580000	0.371900
0.001572	64.580000	0.371900
0.001584	64.580000	0.371900
0.001596	77.030000	0.424100
0.001606	77.030000	0.424100
0.001618	77.030000	0.424100
0.001631	76.100000	0.418700
0.001642	76.100000	0.418700
0.001653	76.100000	0.418700
0.001664	74.020000	0.409600
0.001676	74.020000	0.409600
0.001688	66.300000	0.379100
0.001700	66.300000	0.379100
0.001711	66.300000	0.379100
0.001722	66.300000	0.379100
0.001734	65.150000	0.371100
0.001746	65.150000	0.371100
0.001758	65.150000	0.371100
0.001769	65.150000	0.371100
0.001784	65.150000	0.371100
0.001795	65.150000	0.371100
0.001805	75.960000	0.417800
0.001815	75.960000	0.417800
0.001827	75.960000	0.417800
0.001839	100.130000	0.526500
0.001850	100.130000	0.526500
0.001861	78.320000	0.424600
0.001887	78.320000	0.424600
0.001892	78.320000	0.424600
0.001906	72.450000	0.419700
0.001916	72.450000	0.419700
0.001930	72.450000	0.419700
0.001943	65.370000	0.376200
0.001956	65.370000	0.376200
0.001976	64.730000	0.372200
0.001979	64.730000	0.372200
0.001993	64.730000	0.372200
0.002005	64.730000	0.372200
0.002020	69.520000	0.394700
0.002029	69.520000	0.394700
0.002040	71.090000	0.400000
0.002051	71.090000	0.400000
0.002063	71.090000	0.400000
0.002075	69.950000	0.397300
0.002088	69.950000	0.397300
0.002098	69.950000	0.397300
0.002114	69.950000	0.397300
0.002120	65.300000	0.372300
0.002133	65.300000	0.372300
0.002143	65.300000	0.372300
0.002155	65.730000	0.379700
0.002167	65.730000	0.379700
0.002179	68.730000	0.408000
0.002189	68.730000	0.408000
0.002203	68.730000	0.408000
0.002218	87.970000	0.488900
0.002229	87.970000	0.488900
0.002237	87.970000	0.488900
0.002249	65.440000	0.375700
0.002259	65.440000	0.375700
0.002270	65.440000	0.375700
0.002282	65.440000	0.375700
0.002295	61.290000	0.360000
0.002309	61.290000	0.360000
0.002319	61.290000	0.360000
0.002329	49.490000	0.310400
0.002341	49.490000	0.310400
0.002351	31.180000	0.229500
0.002364	31.180000	0.229500
0.002379	31.180000	0.229500
0.002391	30.750000	0.222400
0.002398	30.750000	0.222400
0.002409	30.750000	0.222400
0.002422	30.970000	0.223300
0.002434	30.970000	0.223300
0.002444	30.970000	0.223300
0.002457	30.970000	0.223300
0.002468	29.680000	0.217900
0.002481	29.680000	0.217900
0.002490	29.680000	0.217900
0.002504	29.680000	0.217900
0.002515	29.680000	0.217900
0.002526	50.490000	0.320100
0.002541	50.490000	0.320100
0.002548	50.490000	0.320100
0.002562	39.410000	0.267600
0.002572	39.410000	0.267600
0.002585	39.410000	0.267600
0.002596	39.410000	0.267600
0.002608	30.040000	0.218900
0.002621	30.040000	0.218900
0.002632	30.040000	0.218900
0.002641	31.750000	0.229200
0.002654	31.750000	0.229200
0.002667	30.460000	0.220100
0.002677	30.460000	0.220100
0.002688	30.460000	0.220100
0.002701	30.390000	0.219400
0.002718	30.390000	0.219400
0.002728	30.390000	0.219400
0.002738	30.110000	0.220000
0.002750	30.110000	0.220000
0.002762	30.110000	0.220000
0.002773	30.110000	0.220000
0.002785	30.040000	0.219800
0.002793	30.040000	0.219800
0.002806	30.040000	0.219800
0.002815	30.180000	0.219500
0.002827	30.180000	0.219500
0.002839	30.110000	0.220400
0.002852	30.110000	0.220400
0.002861	30.110000	0.220400
0.002875	31.110000	0.225900
0.002885	31.110000	0.225900
0.002897	31.110000	0.225900
0.002908	33.830000	0.238100
0.002921	33.830000	0.238100
0.002933	33.830000	0.238100
0.002943	33.830000	0.238100
0.002955	40.690000	0.288000
0.002967	40.690000	0.288000
0.002979	40.690000	0.288000
0.002989	52.710000	0.334800
0.003005	52.710000	0.334800
0.003013	30.250000	0.219600
0.003023	30.250000	0.219600
0.003037	30.250000	0.219600
0.003048	30.110000	0.221100
0.003059	30.110000	0.221100
0.003072	30.110000	0.221100
0.003083	37.550000	0.266900
0.003095	37.550000	0.266900
0.003106	37.550000	0.266900
0.003117	37.550000	0.266900
0.003129	30.610000	0.222200
0.003141	30.610000	0.222200
0.003154	30.610000	0.222200
0.003164	29.610000	0.218400
0.003174	29.610000	0.218400
0.003187	29.460000	0.217100
0.003198	29.460000	0.217100
0.003210	29.460000	0.217100
0.003222	29.460000	0.217100
0.003234	29.460000	0.217100
0.003245	29.460000	0.217100
0.003256	29.750000	0.218000
0.003269	29.750000	0.218000
0.003280	29.750000	0.218000
0.003292	29.750000	0.218000
0.003302	29.680000	0.217100
0.003314	29.680000	0.217100
0.003326	28.610000	0.212100
0.003340	28.610000	0.212100
0.003350	28.610000	0.212100
0.003360	29.110000	0.213900
0.003372	29.110000	0.213900
0.003383	29.110000	0.213900
0.003396	30.110000	0.218800
0.003407	30.110000	0.218800
0.003419	30.110000	0.218800
0.003430	29.610000	0.217000
0.003442	29.610000	0.217000
0.003454	29.610000	0.217000
0.003465	29.610000	0.217000
0.003477	29.820000	0.218900
0.003490	29.820000	0.218900
0.003501	29.610000	0.217900
0.003511	29.610000	0.217900
0.003523	29.610000	0.217900
0.003533	28.680000	0.211700
0.003547	28.680000	0.211700
0.003558	28.680000	0.211700
0.003569	29.540000	0.217500
0.003581	29.540000	0.217500
0.003594	29.540000	0.217500
0.003605	29.540000	0.217500
0.003615	29.610000	0.217800
0.003627	29.610000	0.217800
0.003639	29.610000	0.217800
0.003652	29.820000	0.219400
0.003663	29.820000	0.219400
0.003673	32.680000	0.240500
0.003685	32.680000	0.240500
0.003697	32.680000	0.240500
0.003712	29.820000	0.218400
0.003720	29.820000	0.218400
0.003731	29.820000	0.218400
0.003742	29.890000	0.218200
0.003755	29.890000	0.218200
0.003767	29.890000	0.218200
0.003778	29.890000	0.218200
0.003790	30.890000	0.222900
0.003801	30.890000	0.222900
0.003813	30.890000	0.222900
0.003825	29.680000	0.217700
0.003836	29.680000	0.217700
0.003848	29.890000	0.218200
0.003859	29.890000	0.218200
0.003871	29.890000	0.218200
0.003882	29.390000	0.215300
0.003894	29.390000	0.215300
0.003906	29.390000	0.215300
0.003918	30.750000	0.222800
0.003928	30.750000	0.222800
0.003940	30.750000	0.222800
0.003954	30.750000	0.222800
0.003964	30.750000	0.222800
0.003976	30.750000	0.222800
0.003986	29.460000	0.218400
0.003998	29.460000	0.218400
0.004011	29.460000	0.218400
0.004022	29.610000	0.217700
0.004032	29.610000	0.217700
0.004044	29.610000	0.217700
0.004056	30.110000	0.219900
0.004068	30.110000	0.219900
0.004085	30.110000	0.219900
0.004095	29.750000	0.218200
0.004111	29.750000	0.218200
0.004114	29.750000	0.218200
0.004124	29.750000	0.218200
0.004139	29.680000	0.218500
0.004151	29.680000	0.218500
0.004163	31.180000	0.225300
0.004173	31.180000	0.225300
0.004185	31.180000	0.225300
0.004195	29.680000	0.217400
0.004207	29.680000	0.217400
0.004219	29.680000	0.217400
0.004229	29.390000	0.216200
0.004242	29.390000	0.216200
0.004253	29.390000	0.216200
0.004265	29.390000	0.215900
0.004277	29.390000	0.215900
0.004288	29.390000	0.215900
0.004300	29.390000	0.215900
0.004311	29.460000	0.216300
0.004323	29.460000	0.216300
0.004335	29.890000	0.218500
0.004347	29.890000	0.218500
0.004360	29.890000	0.218500
0.004369	28.750000	0.215400
0.004381	28.750000	0.215400
0.004393	28.750000	0.215400
0.004403	36.400000	0.253200
0.004415	36.400000	0.253200
0.004431	36.400000	0.253200
0.004439	36.400000	0.253200
0.004452	29.390000	0.216100
0.004461	29.390000	0.216100
0.004473	33.110000	0.236700
0.004485	33.110000	0.236700
0.004497	33.110000	0.236700
0.004508	30.750000	0.222700
0.004520	30.750000	0.222700
0.004531	30.750000	0.222700
0.004543	30.110000	0.219600
0.004556	30.110000	0.219600
0.004565	30.110000	0.219600
0.004576	29.390000	0.216400
0.004589	29.390000	0.216400
0.004601	29.390000	0.216400
0.004612	29.390000	0.216400
0.004626	31.180000	0.225000
0.004636	31.180000	0.225000
0.004646	29.390000	0.215900
0.004658	29.390000	0.215900
0.004670	29.390000	0.215900
0.004682	29.390000	0.215900
0.004696	29.390000	0.215900
0.004707	29.390000	0.215900
0.004716	29.680000	0.217300
0.004728	29.680000	0.217300
0.004740	29.680000	0.217300
0.004755	30.320000	0.221400
0.004764	30.320000	0.221400
0.004774	30.320000	0.221400
0.004786	30.320000	0.221400
0.004811	29.610000	0.217900
0.004815	29.820000	0.219300
0.004830	29.820000	0.219300
0.004842	29.820000	0.219300
0.004851	29.820000	0.217500
0.004863	29.820000	0.217500
0.004876	29.820000	0.217500
0.004886	29.820000	0.217500
0.004900	29.460000	0.216500
0.004909	29.460000	0.216500
0.004920	29.460000	0.216500
0.004936	31.750000	0.228000
0.004947	31.750000	0.228000
0.004956	29.390000	0.217100
0.004968	29.390000	0.217100
0.004982	29.390000	0.217100
0.004992	29.820000	0.219400
0.005003	29.820000	0.219400
0.005014	29.820000	0.219400
0.005026	29.890000	0.218400
0.005037	29.890000	0.218400
0.005048	29.890000	0.218400
0.005064	29.890000	0.218400
0.005075	29.820000	0.219200
0.005085	29.820000	0.219200
0.005094	29.820000	0.219200
0.005110	29.460000	0.215900
0.005118	29.460000	0.215900
0.005131	29.390000	0.216400
0.005140	29.390000	0.216400
0.005157	29.390000	0.216400
0.005167	29.250000	0.215900
0.005177	29.250000	0.215900
0.005188	29.250000	0.215900
0.005200	29.750000	0.218500
0.005213	29.750000	0.218500
0.005222	29.750000	0.218500
0.005234	29.750000	0.218500
0.005246	29.610000	0.218400
0.005259	29.610000	0.218400
0.005268	29.610000	0.218400
0.005280	29.680000	0.216800
0.005293	29.680000	0.216800
0.005303	30.110000	0.219800
0.005314	30.110000	0.219800
0.005327	30.110000	0.219800
0.005340	29.320000	0.216600
0.005361	29.320000	0.216600
0.005363	29.320000	0.216600
0.005376	29.750000	0.218100
0.005388	29.750000	0.218100
0.005401	29.750000	0.218100
0.005412	29.750000	0.218100
0.005426	29.750000	0.218100
0.005439	29.750000	0.218100
0.005449	29.960000	0.221000
0.005457	29.960000	0.221000
0.005469	29.960000	0.221000
0.005481	29.960000	0.218900
0.005495	29.960000	0.218900
0.005509	29.960000	0.218900
0.005526	29.610000	0.215800
0.005530	29.610000	0.215800
0.005545	29.610000	0.215800
0.005556	29.610000	0.217200
0.005568	29.610000	0.217200
0.007622	30.250000	0.219200
0.007636	31.250000	0.233900
0.007648	31.250000	0.233900
0.007660	31.250000	0.233900
0.007670	30.820000	0.226500
0.007682	30.820000	0.226500
0.007694	30.820000	0.226500
0.007710	29.890000	0.219200
0.007717	29.890000	0.219200
0.007729	47.630000	0.305100
0.007740	47.630000	0.305100
0.007755	47.630000	0.305100
0.007764	47.630000	0.305100
0.007775	29.180000	0.215500
0.007790	29.180000	0.215500
0.007798	29.180000	0.215500
0.007809	49.200000	0.319600
0.007821	49.200000	0.319600
0.007833	49.200000	0.319600
0.007845	49.990000	0.310500
0.007857	49.990000	0.310500
0.007868	49.990000	0.310500
0.007879	77.740000	0.426300
0.007891	77.740000	0.426300
0.007903	77.740000	0.426300
0.007915	44.340000	0.294600
0.007925	44.340000	0.294600
0.007937	44.340000	0.294600
0.007949	30.320000	0.221400
0.007961	30.320000	0.221400
0.007973	30.320000	0.221400
0.007983	29.610000	0.217100
0.007995	29.610000	0.217100
0.008007	29.610000	0.217100
0.008063	29.540000	0.216100
0.008065	29.540000	0.216100
0.008079	41.410000	0.280800
0.008091	41.410000	0.280800
0.008103	41.410000	0.280800
0.008114	41.410000	0.280800
0.008139	30.750000	0.223100
0.008141	30.750000	0.223100
0.008155	31.040000	0.224200
0.008167	31.040000	0.224200
0.008179	31.040000	0.224200
0.008191	29.320000	0.216200
0.008201	29.320000	0.216200
0.008216	29.320000	0.216200
0.008225	30.890000	0.225400
0.008236	30.890000	0.225400
0.008251	30.890000	0.225400
0.008263	30.390000	0.222200
0.008274	30.390000	0.222200
0.008285	30.390000	0.222200
0.008302	29.680000	0.218300
0.008306	29.680000	0.218300
0.008322	29.680000	0.218300
0.008330	30.250000	0.220800
0.008342	30.250000	0.220800
0.008353	30.250000	0.220800
0.008364	29.390000	0.216600
0.008376	29.390000	0.216600
0.008388	29.390000	0.216600
0.008398	29.250000	0.216400
0.008410	29.250000	0.216400
0.008422	29.250000	0.216400
0.008434	29.750000	0.217400
0.008444	29.750000	0.217400
0.008456	29.750000	0.217400
0.008480	29.250000	0.215600
0.008482	29.250000	0.215600
0.008497	29.250000	0.215600
0.008508	29.390000	0.216600
0.008523	29.390000	0.216600
0.008531	29.390000	0.216600
0.008543	29.390000	0.216200
0.008555	29.390000	0.216200
0.008566	32.040000	0.231500
0.008578	32.040000	0.231500
0.008595	32.040000	0.231500
0.008601	61.790000	0.365500
0.008613	61.790000	0.365500
0.008623	61.790000	0.365500
0.008635	61.790000	0.365500
0.008646	75.240000	0.418800
0.008659	75.240000	0.418800
0.008671	75.240000	0.418800
0.008694	50.850000	0.319400
0.008719	50.850000	0.319400
0.008734	50.920000	0.322300
0.008745	29.680000	0.218100
0.008757	29.680000	0.218100
0.008768	29.680000	0.218100
0.008780	36.190000	0.256100
0.008792	36.190000	0.256100
0.008803	36.190000	0.256100
0.008814	32.110000	0.233600
0.008826	32.110000	0.233600
0.008838	32.110000	0.233600
0.008850	29.540000	0.217200
0.008862	29.540000	0.217200
0.008872	29.540000	0.217200
0.008884	29.610000	0.217600
0.008896	29.610000	0.217600
0.008908	29.610000	0.217600
0.008918	29.390000	0.216500
0.008930	29.390000	0.216500
0.008942	29.390000	0.216500
0.008958	29.820000	0.217400
0.008966	29.820000	0.217400
0.008977	29.820000	0.217400
0.008991	29.180000	0.215000
0.009000	29.180000	0.215000
0.009012	29.180000	0.215000
0.009023	29.180000	0.215000
0.009035	29.680000	0.217200
0.009046	29.680000	0.217200
0.009058	29.540000	0.216700
0.009070	29.540000	0.216700
0.009081	29.540000	0.216700
0.009095	70.880000	0.397700
0.009105	70.880000	0.397700
0.009116	70.880000	0.397700
0.009129	58.290000	0.347700
0.009139	58.290000	0.347700
0.009151	58.290000	0.347700
0.009163	36.120000	0.251400
0.009177	36.120000	0.251400
0.009185	36.120000	0.251400
0.009197	45.060000	0.300000
0.009211	45.060000	0.300000
0.009221	45.060000	0.300000
0.009231	31.110000	0.224000
0.009242	31.110000	0.224000
0.009255	31.110000	0.224000
0.009267	66.010000	0.386200
0.009280	66.010000	0.386200
0.009289	66.010000	0.386200
0.009301	58.220000	0.364200
0.009313	58.220000	0.364200
0.009325	58.220000	0.364200
0.009335	37.980000	0.260400
0.009348	37.980000	0.260400
0.009359	37.980000	0.260400
0.009371	32.250000	0.230300
0.009382	32.250000	0.230300
0.009393	32.250000	0.230300
0.009406	33.180000	0.235600
0.009420	33.180000	0.235600
0.009429	33.180000	0.235600
0.009440	87.610000	0.491700
0.009452	87.610000	0.491700
0.009464	87.610000	0.491700
0.009486	72.880000	0.408600
0.009489	72.880000	0.408600
0.009502	72.880000	0.408600
0.009515	68.230000	0.388000
0.009526	68.230000	0.388000
0.009538	74.740000	0.416400
0.009549	74.740000	0.416400
0.009561	74.740000	0.416400
0.009573	97.130000	0.510900
0.009586	97.130000	0.510900
0.009636	84.820000	0.453400
0.009642	84.820000	0.453400
0.009659	83.970000	0.453900
0.009680	83.970000	0.453900
0.009684	82.180000	0.456400
0.009702	82.180000	0.456400
0.009710	78.530000	0.429600
0.009736	78.530000	0.429600
0.009739	78.530000	0.429600
0.009817	77.100000	0.418200
0.009829	75.600000	0.415900
0.009844	75.600000	0.415900
0.009987	69.660000	0.415900
0.010007	69.520000	0.388500
0.010021	76.810000	0.437500
0.010033	76.810000	0.437500
0.010045	76.810000	0.437500
0.010056	76.810000	0.437500
0.010067	29.540000	0.217100
0.010079	29.540000	0.217100
0.010103	29.540000	0.217100
0.010105	29.110000	0.216400
0.010120	29.110000	0.216400
0.010131	29.110000	0.216400
0.010143	29.250000	0.216200
0.010154	29.250000	0.216200
0.010166	29.250000	0.216200
0.010178	31.680000	0.232200
0.010190	31.680000	0.232200
0.010200	45.060000	0.292700
0.010212	45.060000	0.292700
0.010224	45.060000	0.292700
0.010236	29.610000	0.217600
0.010248	29.610000	0.217600
0.010258	29.610000	0.217600
0.010270	32.680000	0.236300
0.010283	32.680000	0.236300
0.010295	32.680000	0.236300
0.010304	32.680000	0.236300
0.010316	29.820000	0.217600
0.010328	29.820000	0.217600
0.010340	29.320000	0.217600
0.010354	29.320000	0.216600
0.010363	29.320000	0.216600
0.010374	29.250000	0.215800
0.010385	29.250000	0.215800
0.010398	29.250000	0.215800
0.010409	29.390000	0.216600
0.010421	29.390000	0.216600
0.010435	29.390000	0.216600
0.010456	29.390000	0.216600
0.010459	29.390000	0.216600
0.010473	29.390000	0.216600
0.010486	29.250000	0.215500
0.010497	29.250000	0.215500
0.010512	29.320000	0.216700
0.010519	29.320000	0.216700
0.010543	29.320000	0.216700
0.010545	29.110000	0.215500
0.010559	29.110000	0.215500
0.010571	29.110000	0.215500
0.010583	29.320000	0.217000
0.010594	29.320000	0.217000
0.010606	29.320000	0.217000
0.010617	29.320000	0.217000
0.010629	30.040000	0.218100
0.010640	30.040000	0.218100
0.010652	30.040000	0.218100
0.010664	29.180000	0.215500
0.010677	29.180000	0.215500
0.010687	29.820000	0.218700
0.010698	29.820000	0.218700
0.010710	29.820000	0.218700
0.010722	29.460000	0.219000
0.010734	29.460000	0.219000
0.010744	29.460000	0.219000
0.010756	29.320000	0.215600
0.010768	29.320000	0.215600
0.010780	29.320000	0.215600
0.010792	29.320000	0.215600
0.010802	29.320000	0.214300
0.010814	29.320000	0.214300
0.010826	29.180000	0.216300
0.010840	29.180000	0.216300
0.010848	29.180000	0.216300
0.010860	30.460000	0.221400
0.010872	30.460000	0.221400
0.010884	30.460000	0.221400
0.010896	29.180000	0.215200
0.010907	29.180000	0.215200
0.010930	29.180000	0.215200
0.010933	29.390000	0.216800
0.010947	29.390000	0.216800
0.010959	29.390000	0.216800
0.010970	29.320000	0.215800
0.010982	29.320000	0.215800
0.010993	29.320000	0.217000
0.011005	29.320000	0.217000
0.011019	29.320000	0.217000
0.011032	29.320000	0.217000
0.011041	29.180000	0.215500
0.011055	29.180000	0.215500
0.011067	29.610000	0.219200
0.011080	29.610000	0.219200
0.011088	29.610000	0.219200
0.011103	29.610000	0.219200
0.011114	29.250000	0.215500
0.011127	29.250000	0.215500
0.011133	29.250000	0.215500
0.011144	29.110000	0.215400
0.011167	29.750000	0.218200
0.011170	29.750000	0.218200
0.011184	29.750000	0.218200
0.011196	29.750000	0.218200
0.011208	29.250000	0.215800
0.011218	29.250000	0.215800
0.011230	29.250000	0.215800
0.011242	29.110000	0.214700
0.011255	29.110000	0.214700
0.011265	29.110000	0.214700
0.011276	29.110000	0.214700
0.011292	29.320000	0.215800
0.011300	29.320000	0.215800
0.011312	33.680000	0.238000
0.011323	33.680000	0.238000
0.011334	33.680000	0.238000
0.011346	41.620000	0.278200
0.011358	41.620000	0.278200
0.011371	41.620000	0.278200
0.011381	36.620000	0.254500
0.011393	36.620000	0.254500
0.011404	36.620000	0.254500
0.011416	36.620000	0.254500
0.011427	48.200000	0.301100
0.011439	48.200000	0.301100
0.011451	48.200000	0.301100
0.011462	43.270000	0.305500
0.011473	43.270000	0.305500
0.011486	53.350000	0.335000
0.011497	53.350000	0.335000
0.011510	53.350000	0.335000
0.011522	64.870000	0.381800
0.011531	64.870000	0.381800
0.011543	64.870000	0.381800
0.011555	61.150000	0.362100
0.011567	61.150000	0.362100
0.011579	61.150000	0.362100
0.011589	61.150000	0.362100
0.011601	51.420000	0.331100
0.011613	51.420000	0.331100
0.011625	51.420000	0.331100
0.011635	78.600000	0.425300
0.011647	78.600000	0.425300
0.011659	41.620000	0.294900
0.011671	41.620000	0.294900
0.011683	41.620000	0.294900
0.011693	29.540000	0.216800
0.011705	29.540000	0.216800
0.011717	29.540000	0.216800
0.011729	29.460000	0.217100
0.011740	29.460000	0.217100
0.011752	29.460000	0.217100
0.011763	29.460000	0.217100
0.011775	29.460000	0.216100
0.011787	29.460000	0.216100
0.011798	31.180000	0.224500
0.011813	31.180000	0.224500
0.011822	31.180000	0.224500
0.011833	29.030000	0.215600
0.011843	29.030000	0.215600
0.011856	29.030000	0.215600
0.011868	29.250000	0.215200
0.011880	29.250000	0.215200
0.011894	29.250000	0.215200
0.011902	28.530000	0.212200
0.011914	28.530000	0.212200
0.011924	28.530000	0.212200
0.011939	28.530000	0.212200
0.011952	28.030000	0.209400
0.011963	28.030000	0.209400
0.011974	29.390000	0.215600
0.011982	29.390000	0.215600
0.011996	29.390000	0.215600
0.012006	32.610000	0.232300
0.012018	32.610000	0.232300
0.012030	32.610000	0.232300
0.012043	57.290000	0.346700
0.012053	57.290000	0.346700
0.012063	57.290000	0.346700
0.012076	57.290000	0.346700
0.012088	30.040000	0.216600
0.012102	30.040000	0.216600
0.012111	35.190000	0.216600
0.012123	35.190000	0.253700
0.012136	35.190000	0.253700
0.012146	30.890000	0.224000
0.012159	30.890000	0.224000
0.012168	30.890000	0.224000
0.012179	57.930000	0.343200
0.012191	57.930000	0.343200
0.012208	57.930000	0.343200
0.012219	30.460000	0.221700
0.012226	30.460000	0.221700
0.012237	30.460000	0.221700
0.012249	30.460000	0.221700
0.012261	30.820000	0.225100
0.012277	30.820000	0.225100
0.012286	30.970000	0.225600
0.012299	30.970000	0.225600
0.012311	30.970000	0.225600
0.012318	30.460000	0.221800
0.012330	30.460000	0.221800
0.012343	30.460000	0.221800
0.012356	73.310000	0.408800
0.012367	73.310000	0.408800
0.012379	73.310000	0.408800
0.012389	66.230000	0.373500
0.012430	66.230000	0.373500
0.012443	30.250000	0.221300
0.012466	30.320000	0.221000
0.012472	30.320000	0.221000
0.012497	30.320000	0.221000
0.012524	34.610000	0.240800
0.012539	30.460000	0.222000
0.012550	30.460000	0.222000
0.012560	30.460000	0.222000
0.012573	30.320000	0.221100
0.012585	30.320000	0.221100
0.012597	30.320000	0.221100
0.012610	30.110000	0.220600
0.012619	30.110000	0.220600
0.012631	30.180000	0.220900
0.012643	30.180000	0.220900
0.012655	30.180000	0.220900
0.012668	30.040000	0.220500
0.012677	30.040000	0.220500
0.012690	30.040000	0.220500
0.012701	30.250000	0.220300
0.012713	30.250000	0.220300
0.012725	30.250000	0.220300
0.012744	30.320000	0.220900
0.012749	30.320000	0.220900
0.012772	30.180000	0.221000
0.012775	30.180000	0.221000
0.012789	30.180000	0.221000
0.012804	30.180000	0.221000
0.012815	30.180000	0.220700
0.012824	30.180000	0.220700
0.012835	30.180000	0.220700
0.012847	29.890000	0.219600
0.012860	29.890000	0.219600
0.012872	50.350000	0.334800
0.012883	50.350000	0.334800
0.012892	50.350000	0.334800
0.012903	31.970000	0.230500
0.012920	31.970000	0.230500
0.012930	31.970000	0.230500
0.012940	31.970000	0.230500
0.012950	33.470000	0.238800
0.012971	33.470000	0.238800
0.012977	33.470000	0.238800
0.012990	30.460000	0.221000
0.013016	30.460000	0.221000
0.013018	54.570000	0.346100
0.013031	54.570000	0.346100
0.013043	55.140000	0.345500
0.013058	55.140000	0.345500
0.013068	55.140000	0.345500
0.013078	55.930000	0.360800
0.013091	55.930000	0.360800
0.013104	55.930000	0.360800
0.013115	55.930000	0.360800
0.013124	51.560000	0.334500
0.013135	51.560000	0.334500
0.013148	51.560000	0.334500
0.013161	34.680000	0.237900
0.013170	34.680000	0.237900
0.013186	41.980000	0.237900
0.013196	41.980000	0.279900
0.013207	41.980000	0.279900
0.013218	34.040000	0.237600
0.013232	34.040000	0.237600
0.013243	34.040000	0.237600
0.013251	34.040000	0.237600
0.013264	31.110000	0.224200
0.013278	31.110000	0.224200
0.013289	31.110000	0.224200
0.013298	39.830000	0.271700
0.013310	39.830000	0.271700
0.013325	39.830000	0.271700
0.013334	32.970000	0.235700
0.013344	32.970000	0.235700
0.013356	39.830000	0.275600
0.013369	39.830000	0.275600
0.013387	39.830000	0.275600
0.013391	31.250000	0.224500
0.013406	31.250000	0.224500
0.013416	31.250000	0.224500
0.013425	31.250000	0.224500
0.013438	33.470000	0.240700
0.013451	33.470000	0.240700
0.013463	33.470000	0.240700
0.013472	32.830000	0.244600
0.013484	32.830000	0.244600
0.013497	32.830000	0.244600
0.013509	34.470000	0.241500
0.013518	34.470000	0.241500
0.013531	34.830000	0.245600
0.013544	34.830000	0.245600
0.013555	34.830000	0.245600
0.013564	47.630000	0.308200
0.013576	47.630000	0.308200
0.013587	47.630000	0.308200
0.013603	47.630000	0.308200
0.013618	44.630000	0.296300
0.013622	44.630000	0.296300
0.013637	44.630000	0.296300
0.013645	38.050000	0.257000
0.013659	38.050000	0.257000
0.013673	31.250000	0.257000
0.013684	31.250000	0.224800
0.013692	31.250000	0.224800
0.013719	51.210000	0.327300
0.013723	51.210000	0.327300
0.013738	51.210000	0.327300
0.013759	33.110000	0.231600
0.013764	33.110000	0.231600
0.013781	30.750000	0.222100
0.013789	30.750000	0.222100
0.013817	30.750000	0.222100
0.013834	35.970000	0.256000
0.013851	32.040000	0.229700
0.013861	32.040000	0.229700
0.013871	32.040000	0.229700
0.013889	32.680000	0.230800
0.013893	32.680000	0.230800
0.013906	32.680000	0.230800
0.014177	32.040000	0.229300
0.014180	32.040000	0.229300
0.014194	30.460000	0.221200
0.014206	30.460000	0.221200
0.014217	30.460000	0.221200
0.014228	30.390000	0.220900
0.014240	30.390000	0.220900
0.014252	30.390000	0.220900
0.014264	30.250000	0.220600
0.014274	30.250000	0.220600
0.014286	30.250000	0.220600
0.014298	30.250000	0.220600
0.014310	30.320000	0.221400
0.014322	30.320000	0.221400
0.014332	31.820000	0.221400
0.014344	31.820000	0.231000
0.014356	31.820000	0.231000
0.014368	30.320000	0.221400
0.014379	30.320000	0.221400
0.014393	30.320000	0.221400
0.014402	30.390000	0.220300
0.014414	30.390000	0.220300
0.014426	30.390000	0.220300
0.014439	31.180000	0.225500
0.014449	31.180000	0.225500
0.014460	31.180000	0.225500
0.014472	31.180000	0.225500
0.014483	30.820000	0.227000
0.014495	30.820000	0.227000
0.014507	29.250000	0.216200
0.014519	29.250000	0.216200
0.014530	29.250000	0.216200
0.014541	30.460000	0.221000
0.014553	30.460000	0.221000
0.014565	30.460000	0.221000
0.014577	31.040000	0.225100
0.014587	31.040000	0.225100
0.014599	31.040000	0.225100
0.014611	31.320000	0.225400
0.014623	31.320000	0.225400
0.014635	31.320000	0.225400
0.014645	31.320000	0.225400
0.014658	31.320000	0.225500
0.014669	31.320000	0.225500
0.014681	32.320000	0.231200
0.014692	32.320000	0.231200
0.014703	32.320000	0.231200
0.014715	31.180000	0.225900
0.014727	31.180000	0.225900
0.014739	31.180000	0.225900
0.014750	30.180000	0.220200
0.014761	30.180000	0.220200
0.014773	30.180000	0.220200
0.014785	30.180000	0.220200
0.014796	30.250000	0.220500
0.014807	30.250000	0.220500
0.014820	30.250000	0.220500
0.014831	30.890000	0.224600
0.014843	30.890000	0.224600
0.014854	39.120000	0.266300
0.014866	39.120000	0.266300
0.014878	39.120000	0.266300
0.014890	31.040000	0.224300
0.014900	31.040000	0.224300
0.014912	31.040000	0.224300
0.014924	31.610000	0.225400
0.014936	31.610000	0.225400
0.014948	31.610000	0.225400
0.014961	31.610000	0.225400
0.014970	32.470000	0.228900
0.014982	32.470000	0.228900
0.015004	31.540000	0.228400
0.015007	31.540000	0.228400
0.015021	31.540000	0.228400
0.015033	34.680000	0.243800
0.015045	34.680000	0.243800
0.015055	34.680000	0.243800
0.015067	30.540000	0.221600
0.015086	30.540000	0.221600
0.015100	33.540000	0.236700
0.015112	33.540000	0.236700
0.015124	33.540000	0.236700
0.015135	31.110000	0.224600
0.015149	31.110000	0.224600
0.015157	31.110000	0.224600
0.015170	32.110000	0.228100
0.015183	32.110000	0.228100
0.015200	32.110000	0.228100
0.015207	30.460000	0.221400
0.015218	30.460000	0.221400
0.015237	30.460000	0.221400
0.015243	29.390000	0.215600
0.015263	29.390000	0.215600
0.015278	29.390000	0.215600
0.015290	30.250000	0.220800
0.015304	30.250000	0.220800
0.015316	30.610000	0.221900
0.015328	30.610000	0.221900
0.015340	30.610000	0.220800
0.015351	30.610000	0.220800
0.015364	30.610000	0.220800
0.015374	30.460000	0.221400
0.015385	30.460000	0.221400
0.015397	30.460000	0.221400
0.015409	30.250000	0.220500
0.015419	30.250000	0.220500
0.015432	30.250000	0.220500
0.015443	30.250000	0.220500
0.015456	30.540000	0.221300
0.015467	30.540000	0.221300
0.015479	30.390000	0.221100
0.015489	30.390000	0.221100
0.015501	30.390000	0.221100
0.015513	30.390000	0.221500
0.015525	30.390000	0.221500
0.015537	30.390000	0.221500
0.015547	30.970000	0.223100
0.015559	30.970000	0.223100
0.015571	30.970000	0.223100
0.015583	30.460000	0.221500
0.015593	30.460000	0.221500
0.015605	30.460000	0.221500
0.015617	30.460000	0.221500
0.015629	30.680000	0.222600
0.015641	30.680000	0.222600
0.015652	30.390000	0.221400
0.015663	30.390000	0.221400
0.015675	30.390000	0.221400
0.015687	30.180000	0.220600
0.015698	30.180000	0.220600
0.015710	30.180000	0.220600
0.015721	32.180000	0.232600
0.015733	32.180000	0.232600
0.015746	32.180000	0.232600
0.015756	32.180000	0.232600
0.015768	30.390000	0.220900
0.015780	30.390000	0.220900
0.015791	30.390000	0.220900
0.015802	32.750000	0.236800
0.015814	32.750000	0.236800
0.015826	30.460000	0.221600
0.015838	30.460000	0.221600
0.015850	30.460000	0.221600
0.015860	30.460000	0.222000
0.015872	30.460000	0.222000
0.015884	30.460000	0.222000
0.015896	30.540000	0.220700
0.015908	30.540000	0.220700
0.015918	30.540000	0.220700
0.015931	30.540000	0.220700
0.015942	30.390000	0.221100
0.015954	30.390000	0.221100
0.015964	30.610000	0.222100
0.015978	30.610000	0.222100
0.015988	30.610000	0.222100
0.016000	31.040000	0.230700
0.016012	31.040000	0.230700
0.016024	31.040000	0.230700
0.016034	30.180000	0.220400
0.016046	30.180000	0.220400
0.016058	30.180000	0.220400
0.016069	30.460000	0.220000
0.016081	30.460000	0.220000
0.016092	30.460000	0.220000
0.016104	30.460000	0.220000
0.016116	30.320000	0.220200
0.016128	30.320000	0.220200
0.016139	30.890000	0.223700
0.016151	30.890000	0.223700
0.016164	30.890000	0.223700
0.016185	30.820000	0.221600
0.016187	30.820000	0.221600
0.016202	30.820000	0.221600
0.016213	30.460000	0.221600
0.016225	30.460000	0.221600
0.016236	30.460000	0.221600
0.016248	30.250000	0.220400
0.016260	30.250000	0.220400
0.016271	30.250000	0.220400
0.016282	30.110000	0.221000
0.016294	30.110000	0.221000
0.016306	30.890000	0.223400
0.016318	30.890000	0.223400
0.016332	30.890000	0.223400
0.016340	30.890000	0.223400
0.016352	32.470000	0.232300
0.016362	32.470000	0.232300
0.016376	32.470000	0.232300
0.016386	32.040000	0.234400
0.016398	32.040000	0.234400
0.016412	32.040000	0.234400
0.016424	31.110000	0.227200
0.016434	31.110000	0.227200
0.016444	31.110000	0.227200
0.016456	30.680000	0.222500
0.016468	30.680000	0.222500
0.016480	31.750000	0.226400
0.016491	31.750000	0.226400
0.016503	31.750000	0.226400
0.016516	31.750000	0.226400
0.016526	30.890000	0.223000
0.016538	30.890000	0.223000
0.016549	30.890000	0.223000
0.016561	30.610000	0.220900
0.016574	30.610000	0.220900
0.016588	30.610000	0.220900
0.016595	30.250000	0.220900
0.016609	30.250000	0.220900
0.016623	30.110000	0.219500
0.016631	30.110000	0.219500
0.016644	30.110000	0.219500
0.016654	30.820000	0.223100
0.016666	30.820000	0.223100
0.016687	30.820000	0.223100
0.016690	30.820000	0.223100
0.016704	30.110000	0.219200
0.016716	30.110000	0.219200
0.016728	30.110000	0.219200
0.016738	30.250000	0.219100
0.016750	30.250000	0.219100
0.016762	30.250000	0.219100
0.016774	30.460000	0.221200
0.016785	30.460000	0.221200
0.016796	30.250000	0.220700
0.016808	30.250000	0.220700
0.016820	30.250000	0.220700
0.016832	29.250000	0.214900
0.016843	29.250000	0.214900
0.016855	29.250000	0.214900
0.016866	30.540000	0.221500
0.016878	30.540000	0.221500
0.016889	30.540000	0.221500
0.016901	30.540000	0.221500
0.016913	30.680000	0.221400
0.016924	30.680000	0.221400
0.016939	30.680000	0.221400
0.016947	30.250000	0.221000
0.016959	30.250000	0.221000
0.016971	30.110000	0.219900
0.016983	30.110000	0.219900
0.016994	30.110000	0.219900
0.017005	30.250000	0.221000
0.017017	30.250000	0.221000
0.017029	30.250000	0.221000
0.017041	30.110000	0.219700
0.017051	30.110000	0.219700
0.017063	30.110000	0.219700
0.017075	30.110000	0.219700
0.017087	31.540000	0.227000
0.017098	31.540000	0.227000
0.017109	31.970000	0.227000
0.017121	31.970000	0.233900
0.017133	31.970000	0.233900
0.017145	30.110000	0.220300
0.017156	30.110000	0.220300
0.017167	30.110000	0.220300
0.017180	30.320000	0.221300
0.017191	30.320000	0.221300
0.017202	30.320000	0.221300
0.017215	30.040000	0.220300
0.017226	30.040000	0.220300
0.017237	30.040000	0.220300
0.017249	30.040000	0.220300
0.017260	30.390000	0.220500
0.017272	30.390000	0.220500
0.017284	30.460000	0.221400
0.017295	30.460000	0.221400
0.017306	30.460000	0.221400
0.017318	30.320000	0.220200
0.017330	30.320000	0.220200
0.017342	30.320000	0.220200
0.017354	30.180000	0.220900
0.017364	30.180000	0.220900
0.017376	30.180000	0.220900
0.017388	30.390000	0.220200
0.017400	30.390000	0.220200
0.017410	30.390000	0.220200
0.017422	30.390000	0.220200
0.017434	30.460000	0.222000
0.017446	30.460000	0.222000
0.017458	88.470000	0.491400
0.017468	88.470000	0.491400
0.017479	88.470000	0.491400
0.017493	32.970000	0.234700
0.017504	32.970000	0.234700
0.017515	32.970000	0.234700
0.017527	31.320000	0.223800
0.017538	31.320000	0.223800
0.017550	31.320000	0.223800
0.017562	31.040000	0.223900
0.017573	31.040000	0.223900
0.017585	31.040000	0.223900
0.017596	31.040000	0.223900
0.017608	30.610000	0.218900
0.017619	30.610000	0.218900
0.017631	31.250000	0.225200
0.017643	31.250000	0.225200
0.017655	31.250000	0.225200
0.017666	31.250000	0.224800
0.017677	31.250000	0.224800
0.017689	31.250000	0.224800
0.017702	30.610000	0.222300
0.017713	30.610000	0.222300
0.017724	30.610000	0.222300
0.017735	30.610000	0.222300
0.017747	31.040000	0.224300
0.017757	31.040000	0.224300
0.017771	31.040000	0.224300
0.017781	30.820000	0.223000
0.017793	30.820000	0.223000
0.017805	31.320000	0.225200
0.017817	31.320000	0.225200
0.017828	31.320000	0.225200
0.017839	32.400000	0.228200
0.017851	32.400000	0.228200
0.017863	32.400000	0.228200
0.017875	34.110000	0.238900
0.017886	34.110000	0.238900
0.017898	34.110000	0.238900
0.017909	34.110000	0.238900
0.017921	31.110000	0.225200
0.017932	31.110000	0.225200
0.017944	31.180000	0.224500
0.017956	31.180000	0.224500
0.017977	31.180000	0.224500
0.017982	31.180000	0.224500
0.017999	31.180000	0.224500
0.018010	31.180000	0.224500
0.018020	31.750000	0.227000
0.018033	31.750000	0.227000
0.018043	31.750000	0.227000
0.018060	30.820000	0.222600
0.018068	30.820000	0.222600
0.018085	30.820000	0.222600
0.018090	33.610000	0.249400
0.018100	33.610000	0.249400
0.018112	43.410000	0.291300
0.018123	43.410000	0.291300
0.018135	43.410000	0.291300
0.018146	43.410000	0.291300
0.018158	31.040000	0.224100
0.018171	31.040000	0.224100
0.018183	31.040000	0.224100
0.018193	38.260000	0.260900
0.018204	38.260000	0.260900
0.018216	38.260000	0.260900
0.018227	45.270000	0.295600
0.018239	45.270000	0.295600
0.018251	45.270000	0.295600
0.018263	38.190000	0.261600
0.018273	38.190000	0.261600
0.018285	44.340000	0.294100
0.018297	44.340000	0.294100
0.018310	44.340000	0.294100
0.018321	44.340000	0.294100
0.018331	30.890000	0.222500
0.018343	30.890000	0.222500
0.018355	30.890000	0.222500
0.018367	30.110000	0.220500
0.018379	30.110000	0.220500
0.018389	30.110000	0.220500
0.018401	30.460000	0.220500
0.018412	30.460000	0.220500
0.018427	30.680000	0.227200
0.018436	30.680000	0.227200
0.018447	30.680000	0.227200
0.018459	49.710000	0.323700
0.018471	49.710000	0.323700
0.018483	49.710000	0.323700
0.018494	49.710000	0.323700
0.018506	32.970000	0.233100
0.018517	32.970000	0.233100
0.018528	32.970000	0.233100
0.018540	38.400000	0.262400
0.018552	38.400000	0.262400
0.018564	38.400000	0.262400
0.018576	30.040000	0.219900
0.018587	30.040000	0.219900
0.018598	30.680000	0.221600
0.018610	30.680000	0.221600
0.018622	30.680000	0.221600
0.018635	31.750000	0.227000
0.018644	31.750000	0.227000
0.018656	31.750000	0.227000
0.018668	31.750000	0.227000
0.018679	31.110000	0.223500
0.018692	31.110000	0.223500
0.018702	31.110000	0.223500
0.018715	31.110000	0.223500
0.018726	31.110000	0.223500
0.018738	31.110000	0.223500
0.018750	30.890000	0.221000
0.018760	30.890000	0.221000
0.018772	29.890000	0.218800
0.018783	29.890000	0.218800
0.018796	29.890000	0.218800
0.018807	30.540000	0.219600
0.018818	30.540000	0.219600
0.018830	30.540000	0.219600
0.018842	30.540000	0.219600
0.018854	29.610000	0.216100
0.018865	29.610000	0.216100
0.018876	29.610000	0.216100
0.018887	31.610000	0.225800
0.018900	31.610000	0.225800
0.018912	31.610000	0.225800
0.018923	47.130000	0.312300
0.018935	47.130000	0.312300
0.018946	33.470000	0.245100
0.018957	33.470000	0.245100
0.018969	33.470000	0.245100
0.018981	33.470000	0.245100
0.018993	32.110000	0.232200
0.019007	32.110000	0.232200
0.019015	32.110000	0.232200
0.019027	40.760000	0.281000
0.019039	40.760000	0.281000
0.019053	40.760000	0.281000
0.019063	41.770000	0.285800
0.019073	41.770000	0.285800
0.019085	29.960000	0.218400
0.019097	29.960000	0.218400
0.019109	29.960000	0.218400
0.019119	29.890000	0.216200
0.019131	29.890000	0.216200
0.019143	29.890000	0.216200
0.019166	29.320000	0.216600
0.019168	29.320000	0.216600
0.019186	29.320000	0.216600
0.019195	30.460000	0.224100
0.019206	30.460000	0.224100
0.019217	30.460000	0.224100
0.019239	30.460000	0.224100
0.019242	29.680000	0.216700
0.019256	29.110000	0.215300
0.019268	29.110000	0.215300
0.019282	29.110000	0.215300
0.019294	29.110000	0.215300
0.019302	29.750000	0.216900
0.019314	29.750000	0.216900
0.019326	29.750000	0.216900
0.019338	31.110000	0.225800
0.019362	31.110000	0.225800
0.019367	31.110000	0.225800
0.019384	29.250000	0.215500
0.019394	29.250000	0.215500
0.019409	29.610000	0.215500
0.019420	29.610000	0.217000
0.019431	29.610000	0.217000
0.019443	29.610000	0.217000
0.019451	29.610000	0.217000
0.019465	29.610000	0.217000
0.019474	30.320000	0.223300
0.019484	30.320000	0.223300
0.019505	30.320000	0.223300
0.019508	29.750000	0.215900
0.019520	29.750000	0.215900
0.019532	29.750000	0.215900
0.019543	29.180000	0.215600
0.019554	29.180000	0.215600
0.019566	29.180000	0.215600
0.019578	29.460000	0.218900
0.019589	29.460000	0.218900
0.019613	30.040000	0.218000
0.019615	30.040000	0.218000
0.019629	30.040000	0.218000
0.019646	30.040000	0.218000
0.019656	29.180000	0.215500
0.019664	29.180000	0.215500
0.019675	29.180000	0.215500
0.019687	28.250000	0.210100
0.019699	28.250000	0.210100
0.019710	28.250000	0.210100
0.019722	30.680000	0.224200
0.019733	30.680000	0.224200
0.019749	28.460000	0.210400
0.019757	28.460000	0.210400
0.019768	28.460000	0.210400
0.019780	30.460000	0.221400
0.019791	30.460000	0.221400
0.019803	30.460000	0.221400
0.019814	30.460000	0.221400
0.019827	31.180000	0.224700
0.019838	31.180000	0.224700
0.019853	31.180000	0.224700
0.019861	31.540000	0.227800
0.019872	31.540000	0.227800
0.019884	31.540000	0.227800
0.019895	31.180000	0.230700
0.019910	31.180000	0.230700
0.019918	29.820000	0.218200
0.019930	29.820000	0.218200
0.019942	29.820000	0.218200
0.019954	32.970000	0.239000
0.019967	32.970000	0.239000
0.019976	32.970000	0.239000
0.019988	32.970000	0.239000
0.020001	30.390000	0.219700
0.020012	30.390000	0.219700
0.020023	30.390000	0.219700
0.020034	39.330000	0.270200
0.020046	39.330000	0.270200
0.020058	29.610000	0.216700
0.020069	29.610000	0.216700
0.020081	29.610000	0.216700
0.020093	41.620000	0.299500
0.020104	41.620000	0.299500
0.020119	41.620000	0.299500
0.020127	41.620000	0.299500
0.020139	34.400000	0.247000
0.020151	34.400000	0.247000
0.020162	34.400000	0.247000
0.020177	34.400000	0.247000
0.020186	34.400000	0.247000
0.020197	34.400000	0.247000
0.020209	52.210000	0.330100
0.020221	52.210000	0.330100
0.020231	30.610000	0.220400
0.020243	30.610000	0.220400
0.020255	30.610000	0.220400
0.020269	33.540000	0.241000
0.020277	33.540000	0.241000
0.020289	33.540000	0.241000
0.020301	33.540000	0.241000
0.020313	34.680000	0.240100
0.020325	34.680000	0.240100
0.020335	34.680000	0.240100
0.020347	30.970000	0.222600
0.020359	30.970000	0.222600
0.020373	30.970000	0.222600
0.020383	31.900000	0.233500
0.020394	31.900000	0.233500
0.020405	29.250000	0.215900
0.020421	29.250000	0.215900
0.020429	29.250000	0.215900
0.020440	29.030000	0.213900
0.020452	29.030000	0.213900
0.020463	29.030000	0.213900
0.020475	29.030000	0.213900
0.020487	29.320000	0.215400
0.020498	29.320000	0.215400
0.020510	29.320000	0.215400
0.020522	29.460000	0.215700
0.020533	29.460000	0.215700
0.020544	43.630000	0.296200
0.020556	43.630000	0.296200
0.020568	43.630000	0.296200
0.020580	32.250000	0.232700
0.020591	32.250000	0.232700
0.020602	32.250000	0.232700
0.020614	40.050000	0.272400
0.020626	40.050000	0.272400
0.020638	40.050000	0.272400
0.020648	40.050000	0.272400
0.020660	56.290000	0.352100
0.020672	56.290000	0.352100
0.020684	56.290000	0.352100
0.020698	32.540000	0.231900
0.020706	32.540000	0.231900
0.020718	72.740000	0.412100
0.020730	72.740000	0.412100
0.020747	72.740000	0.412100
0.020754	35.330000	0.244900
0.020769	35.330000	0.244900
0.020776	35.330000	0.244900
0.020791	35.330000	0.244900
0.020801	38.480000	0.260400
0.020817	38.480000	0.260400
0.020825	38.480000	0.260400
0.020836	34.680000	0.238900
0.020846	34.680000	0.238900
0.020865	34.680000	0.238900
0.020869	46.490000	0.309100
0.020881	46.490000	0.309100
0.020893	46.490000	0.309100
0.020915	46.490000	0.309100
0.020917	46.490000	0.309100
0.020932	31.820000	0.226400
0.020946	31.820000	0.226400
0.020955	31.820000	0.226400
0.020966	31.820000	0.225100
0.020978	31.820000	0.225100
0.020990	31.820000	0.225100
0.021003	31.610000	0.226400
0.021012	31.610000	0.226400
0.021024	31.610000	0.226400
0.021036	31.540000	0.226000
0.021048	31.540000	0.226000
0.021060	31.540000	0.226000
0.021070	31.390000	0.225000
0.021082	31.390000	0.225000
0.021094	31.390000	0.225000
0.021108	31.540000	0.226600
0.021117	31.540000	0.226600
0.021128	31.540000	0.226600
0.021140	31.970000	0.225600
0.021154	31.970000	0.225600
0.021164	31.970000	0.225600
0.021175	34.040000	0.237400
0.021189	34.040000	0.237400
0.021198	34.040000	0.237400
0.021210	31.180000	0.224400
0.021220	31.180000	0.224400
0.021233	31.180000	0.224400
0.021245	31.180000	0.224700
0.021256	31.180000	0.224700
0.021268	31.180000	0.224700
0.021279	35.400000	0.247000
0.021293	35.400000	0.247000
0.021303	35.400000	0.247000
0.021314	31.470000	0.224400
0.021325	31.470000	0.224400
0.021337	31.470000	0.224400
0.021349	31.470000	0.224400
0.021361	31.470000	0.224300
0.021373	31.470000	0.224300
0.021383	33.330000	0.237000
0.021395	33.330000	0.237000
0.021407	33.330000	0.237000
0.021418	33.400000	0.236500
0.021429	33.400000	0.236500
0.021441	33.400000	0.236500
0.021453	32.830000	0.229400
0.021465	32.830000	0.229400
0.021479	32.830000	0.229400
0.021487	31.610000	0.226400
0.021499	31.610000	0.226400
0.021512	33.180000	0.230000
0.021523	33.180000	0.230000
0.021534	33.180000	0.230000
0.021546	33.180000	0.230000
0.021557	32.110000	0.227300
0.021569	32.110000	0.227300
0.021582	32.110000	0.227300
0.021592	31.180000	0.225100
0.021604	31.180000	0.225100
0.021617	31.180000	0.225100
0.021627	31.180000	0.225100
0.021638	31.180000	0.225100
0.021650	31.180000	0.225100
0.021662	31.470000	0.224000
0.021685	31.470000	0.224000
0.021688	33.470000	0.235000
0.021702	33.470000	0.235000
0.021716	33.470000	0.235000
0.021726	40.410000	0.278300
0.021736	40.410000	0.278300
0.021751	40.410000	0.278300
0.021760	40.410000	0.278300
0.021772	64.510000	0.381000
0.021782	64.510000	0.381000
0.021794	64.510000	0.381000
0.021806	32.110000	0.232600
0.021818	32.110000	0.232600
0.021830	32.110000	0.232600
0.021840	53.350000	0.337600
0.021853	53.350000	0.337600
0.021864	47.340000	0.303300
0.021879	47.340000	0.303300
0.021887	47.340000	0.303300
0.021899	38.690000	0.265100
0.021913	38.690000	0.265100
0.021922	38.690000	0.265100
0.021937	38.690000	0.265100
0.021945	33.900000	0.239100
0.021957	33.900000	0.239100
0.021971	33.900000	0.239100
0.021981	32.250000	0.228500
0.021991	32.250000	0.228500
0.022003	31.470000	0.228500
0.022016	31.470000	0.225500
0.022027	31.470000	0.225500
0.022039	31.470000	0.225700
0.022049	31.470000	0.225700
0.022061	31.470000	0.225700
0.022073	31.390000	0.225400
0.022086	31.390000	0.225400
0.022095	31.390000	0.225400
0.022107	31.390000	0.225400
0.022119	33.330000	0.237200
0.022139	33.330000	0.237200
0.022148	33.330000	0.237200
0.022158	33.330000	0.233100
0.022167	33.330000	0.233100
0.022177	34.830000	0.244900
0.022191	34.830000	0.244900
0.022200	34.830000	0.244900
0.022214	33.180000	0.232900
0.022222	33.180000	0.232900
0.022236	33.180000	0.232900
0.022245	31.540000	0.224100
0.022260	31.540000	0.224100
0.022270	31.540000	0.224100
0.022282	31.540000	0.224100
0.022294	31.820000	0.227200
0.022305	31.820000	0.227200
0.022316	31.820000	0.227200
0.022330	31.820000	0.228200
0.022341	31.820000	0.228200
0.022351	31.820000	0.228200
0.022363	31.820000	0.228200
0.022376	31.820000	0.228200
0.022386	32.180000	0.228900
0.022398	32.180000	0.228900
0.022421	31.320000	0.224900
0.022436	31.320000	0.224900
0.022452	31.320000	0.224900
0.022468	33.680000	0.234200
0.022472	33.680000	0.234200
0.022485	33.680000	0.234200
0.022497	31.610000	0.224100
0.022516	31.610000	0.224100
0.022522	31.110000	0.221200
0.022532	31.110000	0.221200
0.022544	31.110000	0.221200
0.022555	31.110000	0.221200
0.022567	31.540000	0.225200
0.022580	31.540000	0.225200
0.022593	31.540000	0.225200
0.022601	31.540000	0.226600
0.022613	31.540000	0.226600
0.022626	31.540000	0.226600
0.022636	31.470000	0.224800
0.022647	31.470000	0.224800
0.022659	34.260000	0.224800
0.022673	34.260000	0.238600
0.022685	34.260000	0.238600
0.022696	34.260000	0.238600
0.022705	31.540000	0.224200
0.022717	31.540000	0.224200
0.022731	31.540000	0.224200
0.022740	32.470000	0.228200
0.022751	32.470000	0.228200
0.022763	32.470000	0.228200
0.022776	31.390000	0.226200
0.022788	31.390000	0.226200
0.022798	31.390000	0.226200
0.022811	31.900000	0.227000
0.022821	31.900000	0.227000
0.022834	32.110000	0.228500
0.022851	32.110000	0.228500
0.022857	32.110000	0.228500
0.022866	32.110000	0.228500
0.022878	31.470000	0.226200
0.022891	31.470000	0.226200
0.022902	31.470000	0.226200
0.022915	36.970000	0.254200
0.022928	36.970000	0.254200
0.022936	36.970000	0.254200
0.022949	32.040000	0.229300
0.022966	32.040000	0.229300
0.022972	32.040000	0.229300
0.022985	59.290000	0.366100
0.022996	59.290000	0.366100
0.023007	31.900000	0.227500
0.023019	31.900000	0.227500
0.023030	31.900000	0.227500
0.023044	31.900000	0.227500
0.023055	31.750000	0.226200
0.023067	31.750000	0.226200
0.023075	31.750000	0.226200
0.023088	31.750000	0.226200
0.023100	31.750000	0.226200
0.023111	31.750000	0.226200
0.023126	31.970000	0.225500
0.023137	31.970000	0.225500
0.023147	31.970000	0.225500
0.023157	31.970000	0.228200
0.023168	31.970000	0.228200
0.023182	33.250000	0.234000
0.023191	33.250000	0.234000
0.023204	33.250000	0.234000
0.023215	33.250000	0.234000
0.023229	31.180000	0.224500
0.023239	31.180000	0.224500
0.023249	31.180000	0.224500
0.023261	31.540000	0.225400
0.023275	31.540000	0.225400
0.023285	31.540000	0.225400
0.023297	32.110000	0.226900
0.023308	32.110000	0.226900
0.023320	33.040000	0.234000
0.023331	33.040000	0.234000
0.023343	33.040000	0.234000
0.023355	33.110000	0.234400
0.023368	33.110000	0.234400
0.023377	33.110000	0.234400
0.023389	33.110000	0.234400
0.023402	32.470000	0.231000
0.023416	32.470000	0.231000
0.023423	32.470000	0.231000
0.023435	35.470000	0.244900
0.023447	35.470000	0.244900
0.023460	35.470000	0.244900
0.023470	33.250000	0.233800
0.023482	33.250000	0.233800
0.023495	29.750000	0.217200
0.023505	29.750000	0.217200
0.023517	29.750000	0.217200
0.023538	44.980000	0.308000
0.023542	44.980000	0.308000
0.023557	44.980000	0.308000
0.023571	29.960000	0.219500
0.023579	29.960000	0.219500
0.023594	29.960000	0.219500
0.023602	29.960000	0.219500
0.023614	30.460000	0.224900
0.023625	30.460000	0.224900
0.023637	30.460000	0.224900
0.023651	29.890000	0.218800
0.023663	29.890000	0.218800
0.023672	29.320000	0.215000
0.023683	29.320000	0.215000
0.023697	29.320000	0.215000
0.023709	29.960000	0.217900
0.023717	29.960000	0.217900
0.023729	29.960000	0.217900
0.023741	31.470000	0.224800
0.023766	31.470000	0.224800
0.023770	31.470000	0.224800
0.023784	50.350000	0.319200
0.023796	50.350000	0.319200
0.023809	50.350000	0.319200
0.023819	50.350000	0.319200
0.023831	50.350000	0.319200
0.023840	65.940000	0.372600
0.023856	65.940000	0.372600
0.023867	65.940000	0.372600
0.023875	65.940000	0.372600
0.023887	83.180000	0.462800
0.023902	83.180000	0.462800
0.023913	83.180000	0.462800
0.023922	37.120000	0.258400
0.023934	37.120000	0.258400
0.023950	37.120000	0.258400
0.023959	32.970000	0.237300
0.023969	32.970000	0.237300
0.023981	29.250000	0.215300
0.023992	29.250000	0.215300
0.024004	29.250000	0.215300
0.024016	29.180000	0.216200
0.024030	29.180000	0.216200
0.024040	29.180000	0.216200
0.024052	29.180000	0.216200
0.024063	30.540000	0.222300
0.024075	30.540000	0.222300
0.024084	30.540000	0.222300
0.024095	30.390000	0.219800
0.024110	30.390000	0.219800
0.024122	30.390000	0.219800
0.024131	30.250000	0.218900
0.024143	30.250000	0.218900
0.024156	31.540000	0.229500
0.024168	31.540000	0.229500
0.024176	31.540000	0.229500
0.024189	31.680000	0.231900
0.024203	31.680000	0.231900
0.024211	31.680000	0.231900
0.024225	31.680000	0.231900
0.024235	29.250000	0.216200
0.024250	29.250000	0.216200
0.024258	29.250000	0.216200
0.024271	29.890000	0.218600
0.024282	29.890000	0.218600
0.024296	29.750000	0.218600
0.024304	29.750000	0.218300
0.024316	29.750000	0.218300
0.024331	29.250000	0.215000
0.024341	29.250000	0.215000
0.024352	29.250000	0.215000
0.024363	32.540000	0.239800
0.024379	32.540000	0.239800
0.024388	32.540000	0.239800
0.024399	32.540000	0.239800
0.024408	29.960000	0.220800
0.024420	29.960000	0.220800
0.024437	29.960000	0.220800
0.024447	29.460000	0.216900
0.024459	29.460000	0.216900
0.024466	28.960000	0.214700
0.024478	28.960000	0.214700
0.024489	28.960000	0.214700
0.024502	28.530000	0.211000
0.024516	28.530000	0.211000
0.024524	28.530000	0.211000
0.024538	28.530000	0.211000
0.024548	28.530000	0.211000
0.024562	28.530000	0.211000
0.024571	28.530000	0.211000
0.024584	30.110000	0.219700
0.024594	30.110000	0.219700
0.024609	30.110000	0.219700
0.024617	29.250000	0.216100
0.024630	29.250000	0.216100
0.024640	29.250000	0.215000
0.024653	29.250000	0.215000
0.024668	29.250000	0.215000
0.024675	29.110000	0.215100
0.024689	29.110000	0.215100
0.024699	29.110000	0.215100
0.024711	29.110000	0.215100
0.024726	29.250000	0.215300
0.024738	29.250000	0.215300
0.024747	29.250000	0.215300
0.024757	29.680000	0.216600
0.024769	29.680000	0.216600
0.024783	29.680000	0.216600
0.024796	29.750000	0.222900
0.024807	29.750000	0.222900
0.024814	28.180000	0.209500
0.024827	28.180000	0.209500
0.024839	28.180000	0.209500
0.024850	29.030000	0.213400
0.024865	29.030000	0.213400
0.024873	29.030000	0.213400
0.024885	29.030000	0.213400
0.024899	30.680000	0.223700
0.024910	30.680000	0.223700
0.024925	30.680000	0.223700
0.024930	32.680000	0.230800
0.024943	32.680000	0.230800
0.024962	29.110000	0.216000
0.024965	29.110000	0.216000
0.024993	29.110000	0.216000
0.024999	29.250000	0.215800
0.025012	29.250000	0.215800
0.025572	30.460000	0.221500
0.025574	30.460000	0.221500
0.025588	31.750000	0.228500
0.025600	31.750000	0.228500
0.025612	43.550000	0.304800
0.025623	43.550000	0.304800
0.025634	43.550000	0.304800
0.025646	30.610000	0.222400
0.025659	30.610000	0.222400
0.025669	30.610000	0.222400
0.025681	30.610000	0.222400
0.025693	30.250000	0.220700
0.025704	30.250000	0.220700
0.025716	30.250000	0.220700
0.025727	30.110000	0.220800
0.025741	30.110000	0.220800
0.025751	30.110000	0.220800
0.025762	29.180000	0.215500
0.025773	29.180000	0.215500
0.025785	29.960000	0.219200
0.025797	29.960000	0.219200
0.025809	29.960000	0.219200
0.025821	29.960000	0.219200
0.025831	47.200000	0.317100
0.025843	47.200000	0.317100
0.025855	47.200000	0.317100
0.025867	34.260000	0.242100
0.025877	34.260000	0.242100
0.025889	34.260000	0.242100
0.025901	35.330000	0.247700
0.025913	35.330000	0.247700
0.025925	35.330000	0.247700
0.025936	32.900000	0.240300
0.025947	32.900000	0.240300
0.025959	29.180000	0.215600
0.025971	29.180000	0.215600
0.025982	29.180000	0.215600
0.025994	29.180000	0.215600
0.026005	29.180000	0.215600
0.026017	29.180000	0.215600
0.026028	29.180000	0.215600
0.026040	29.890000	0.218300
0.026052	29.890000	0.218300
0.026064	29.890000	0.218300
0.026075	28.960000	0.215100
0.026086	28.960000	0.215100
0.026098	29.180000	0.214500
0.026110	29.180000	0.214500
0.026122	29.180000	0.214500
0.026133	36.620000	0.268200
0.026144	36.620000	0.268200
0.026156	36.620000	0.268200
0.026168	36.620000	0.268200
0.026180	34.400000	0.246700
0.026190	34.400000	0.246700
0.026202	34.400000	0.246700
0.026214	29.890000	0.218700
0.026232	29.890000	0.218700
0.026246	30.040000	0.219900
0.026258	30.040000	0.219900
0.026270	30.610000	0.225400
0.026280	30.610000	0.225400
0.026292	30.610000	0.225400
0.026304	30.610000	0.225400
0.026321	29.110000	0.215700
0.026331	29.110000	0.215700
0.026343	29.110000	0.215700
0.026350	28.960000	0.215000
0.026365	28.960000	0.215000
0.026373	28.960000	0.215000
0.026388	29.110000	0.214700
0.026396	29.110000	0.214700
0.026416	29.110000	0.214700
0.026422	29.030000	0.213800
0.026430	29.030000	0.213800
0.026443	28.960000	0.214100
0.026453	28.960000	0.214100
0.026466	28.960000	0.214100
0.026481	28.960000	0.214100
0.026491	29.180000	0.215800
0.026500	29.180000	0.215800
0.026516	29.180000	0.215800
0.026525	29.680000	0.217500
0.026538	29.680000	0.217500
0.026546	29.680000	0.217500
0.026558	32.750000	0.237300
0.026569	32.750000	0.237300
0.026593	32.750000	0.237300
0.026597	34.610000	0.243100
0.026610	34.610000	0.243100
0.026624	34.260000	0.243400
0.026637	34.260000	0.243400
0.026648	34.260000	0.243400
0.026658	29.460000	0.217200
0.026670	29.460000	0.217200
0.026680	29.460000	0.217200
0.026695	30.540000	0.221500
0.026704	30.540000	0.221500
0.026716	30.540000	0.221500
0.026730	30.540000	0.221500
0.026740	30.540000	0.221500
0.026750	30.540000	0.221500
0.026762	37.260000	0.263900
0.026776	37.260000	0.263900
0.026788	37.260000	0.263900
0.026796	42.840000	0.297200
0.026807	42.840000	0.297200
0.026820	42.840000	0.297200
0.026836	31.250000	0.224700
0.026848	31.250000	0.224700
0.026855	31.250000	0.224700
0.026867	35.400000	0.248900
0.026877	35.400000	0.248900
0.026888	35.400000	0.248900
0.026901	35.400000	0.248900
0.026912	30.390000	0.226900
0.026926	30.390000	0.226900
0.026940	29.610000	0.217200
0.026951	29.610000	0.217200
0.026958	29.610000	0.217200
0.026979	31.320000	0.232800
0.026985	31.320000	0.232800
0.026995	31.320000	0.232800
0.027009	29.030000	0.215900
0.027016	29.030000	0.215900
0.027028	29.030000	0.215900
0.027043	29.320000	0.215800
0.027054	29.320000	0.215800
0.027062	29.320000	0.215800
0.027075	29.320000	0.215800
0.027089	29.250000	0.215800
0.027099	29.250000	0.215800
0.027109	29.320000	0.216700
0.027121	29.320000	0.216700
0.027134	29.320000	0.216700
0.027146	29.180000	0.215100
0.027155	29.180000	0.215100
0.027168	29.180000	0.215100
0.027181	28.960000	0.214600
0.027190	28.960000	0.214600
0.027201	28.960000	0.214600
0.027215	28.960000	0.214600
0.027227	29.110000	0.215100
0.027236	29.110000	0.215100
0.027249	30.110000	0.222100
0.027262	30.110000	0.222100
0.027273	30.110000	0.222100
0.027283	29.250000	0.216100
0.027294	29.250000	0.216100
0.027306	29.250000	0.216100
0.027317	29.320000	0.216400
0.027330	29.320000	0.216400
0.027345	29.320000	0.216400
0.027357	29.390000	0.215400
0.027368	29.390000	0.215400
0.027379	29.390000	0.215400
0.027387	29.390000	0.215400
0.027398	29.030000	0.215100
0.027410	29.030000	0.215100
0.027422	29.610000	0.217400
0.027437	29.610000	0.217400
0.027448	29.610000	0.217400
0.027456	29.610000	0.217400
0.027468	29.610000	0.217400
0.027480	29.610000	0.217400
0.027492	28.960000	0.214100
0.027508	28.960000	0.214100
0.027518	28.960000	0.214100
0.027529	30.680000	0.228300
0.027541	30.680000	0.228300
0.027549	30.680000	0.228300
0.027561	30.680000	0.228300
0.027572	29.110000	0.215300
0.027587	29.110000	0.215300
0.027598	29.540000	0.217900
0.027607	29.540000	0.217900
0.027623	29.540000	0.217900
0.027634	29.680000	0.218600
0.027644	29.680000	0.218600
0.027655	29.680000	0.218600
0.027669	31.320000	0.225800
0.027681	31.320000	0.225800
0.027688	31.320000	0.225800
0.027707	28.960000	0.214700
0.027722	28.960000	0.214700
0.027728	28.960000	0.214700
0.027752	28.890000	0.214700
0.027755	28.890000	0.214700
0.027769	29.180000	0.215400
0.027790	29.180000	0.215400
0.028835	29.180000	0.215400
0.028849	28.750000	0.212800
0.028861	28.750000	0.212800
0.028872	28.750000	0.212800
0.028884	30.610000	0.221100
0.028895	30.610000	0.221100
0.028907	30.610000	0.221100
0.028919	29.680000	0.217900
0.028931	29.680000	0.217900
0.028941	29.680000	0.217900
0.028953	29.320000	0.216400
0.028965	29.320000	0.216400
0.028977	29.320000	0.216400
0.028989	29.250000	0.215200
0.028999	29.250000	0.215200
0.029011	29.250000	0.215200
0.029023	28.960000	0.213800
0.029035	28.960000	0.213800
0.029045	28.960000	0.213800
0.029057	29.460000	0.218200
0.029069	29.460000	0.218200
0.029081	29.460000	0.218200
0.029092	29.390000	0.217000
0.029106	29.390000	0.217000
0.029117	29.390000	0.217000
0.029131	28.960000	0.214400
0.029143	28.960000	0.214400
0.029153	28.960000	0.214400
0.029165	29.320000	0.215500
0.029173	29.320000	0.215500
0.029185	29.320000	0.215500
0.029197	30.390000	0.222600
0.029208	30.390000	0.222600
0.029220	30.390000	0.222600
0.029232	29.110000	0.215600
0.029243	29.110000	0.215600
0.029254	29.110000	0.215600
0.029266	29.110000	0.215000
0.029278	29.110000	0.215000
0.029290	29.110000	0.215000
0.029301	28.960000	0.214100
0.029312	28.960000	0.214100
0.029324	28.960000	0.214100
0.029336	29.320000	0.215900
0.029348	29.320000	0.215900
0.029358	29.320000	0.215900
0.029370	28.890000	0.214900
0.029382	28.890000	0.214900
0.029394	29.110000	0.215700
0.029406	29.110000	0.215700
0.029416	29.110000	0.215700
0.029428	29.110000	0.215700
0.029440	29.960000	0.219300
0.029452	29.960000	0.219300
0.029463	29.960000	0.219300
0.029475	28.960000	0.214100
0.029486	28.960000	0.214100
0.029498	28.960000	0.214100
0.029510	29.180000	0.215000
0.029521	29.180000	0.215000
0.029533	29.180000	0.215000
0.029544	28.890000	0.212500
0.029556	28.890000	0.212500
0.029568	29.250000	0.216100
0.029580	29.250000	0.216100
0.029591	29.250000	0.216100
0.029603	29.250000	0.216100
0.029614	30.610000	0.223300
0.029625	30.610000	0.223300
0.029637	30.610000	0.223300
0.029649	29.320000	0.215900
0.029661	29.320000	0.215900
0.029671	29.320000	0.215900
0.029683	29.320000	0.215900
0.029695	29.320000	0.215900
0.029707	29.320000	0.215900
0.029719	29.030000	0.215500
0.029729	29.030000	0.215500
0.029741	29.390000	0.216300
0.029753	29.390000	0.216300
0.029765	29.390000	0.216300
0.029777	29.390000	0.216300
0.029787	29.180000	0.214000
0.029799	29.180000	0.214000
0.029811	29.180000	0.214000
0.029823	29.030000	0.214800
0.029835	29.030000	0.214800
0.029845	29.030000	0.214800
0.029857	29.320000	0.215400
0.029869	29.320000	0.215400
0.029881	30.820000	0.224100
0.029892	30.820000	0.224100
0.029904	30.820000	0.224100
0.029915	30.820000	0.224100
0.029927	29.180000	0.215300
0.029938	29.180000	0.215300
0.029950	29.180000	0.215300
0.029962	29.540000	0.216400
0.029974	29.540000	0.216400
0.029985	29.540000	0.216400
0.029996	29.180000	0.214200
0.030008	29.180000	0.214200
0.030020	29.180000	0.214200
0.030032	29.180000	0.216400
0.030042	29.180000	0.216400
0.030054	30.040000	0.219700
0.030066	30.040000	0.219700
0.030078	30.040000	0.219700
0.030090	30.040000	0.219700
0.030100	29.180000	0.215300
0.030112	29.180000	0.215300
0.030124	29.180000	0.215300
0.030136	29.180000	0.215500
0.030147	29.180000	0.215500
0.030158	29.180000	0.215500
0.030170	29.460000	0.217200
0.030182	29.460000	0.217200
0.030194	29.460000	0.217200
0.030205	29.820000	0.219100
0.030219	29.820000	0.219100
0.030228	29.250000	0.215700
0.030243	29.250000	0.215700
0.030251	29.250000	0.215700
0.030263	29.250000	0.215700
0.030275	29.180000	0.215800
0.030286	29.180000	0.215800
0.030299	29.180000	0.215800
0.030309	30.820000	0.227700
0.030322	30.820000	0.227700
0.030333	30.820000	0.227700
0.030344	29.030000	0.214200
0.030355	29.030000	0.214200
0.030367	29.030000	0.214200
0.030379	32.470000	0.236300
0.030391	32.470000	0.236300
0.030403	29.750000	0.216900
0.030413	29.750000	0.216900
0.030425	29.750000	0.216900
0.030437	29.750000	0.216900
0.030449	30.750000	0.221500
0.030462	30.750000	0.221500
0.030484	30.750000	0.221500
0.030487	29.680000	0.218200
0.030502	29.680000	0.218200
0.030518	28.820000	0.214400
0.030529	28.820000	0.214400
0.030540	28.820000	0.214400
0.030552	29.180000	0.215700
0.030560	29.180000	0.215700
0.030580	29.180000	0.215700
0.030583	29.180000	0.215800
0.030594	29.180000	0.215800
0.030607	29.180000	0.215800
0.030618	29.320000	0.215000
0.030629	29.320000	0.215000
0.030643	29.320000	0.215000
0.030652	29.110000	0.215000
0.030664	29.110000	0.215000
0.030674	29.110000	0.215000
0.030689	29.110000	0.215000
0.030698	29.110000	0.214500
0.030711	29.110000	0.214500
0.030722	29.250000	0.215400
0.030733	29.250000	0.215400
0.030747	29.250000	0.215400
0.030756	28.960000	0.214200
0.030768	28.960000	0.214200
0.030780	28.960000	0.214200
0.030792	29.390000	0.221800
0.030802	29.390000	0.221800
0.030814	29.390000	0.221800
0.030827	29.540000	0.216800
0.030836	29.540000	0.216800
0.030850	29.540000	0.216800
0.030861	29.540000	0.216800
0.030874	29.030000	0.214200
0.030884	29.030000	0.214200
0.030896	31.390000	0.230100
0.030907	31.390000	0.230100
0.030919	31.390000	0.230100
0.030931	28.820000	0.213500
0.030942	28.820000	0.213500
0.030955	28.820000	0.213500
0.030965	29.250000	0.216100
0.030978	29.250000	0.216100
0.030989	29.250000	0.216100
0.031002	31.970000	0.230500
0.031011	31.970000	0.230500
0.031023	31.970000	0.230500
0.031035	29.250000	0.217000
0.031047	29.250000	0.217000
0.031059	29.250000	0.217000
0.031069	29.750000	0.218200
0.031081	29.750000	0.218200
0.031093	29.750000	0.218200
0.031105	29.030000	0.214800
0.031115	29.030000	0.214800
0.031127	29.030000	0.214800
0.031139	29.680000	0.217800
0.031151	29.680000	0.217800
0.031163	29.680000	0.217800
0.031176	29.680000	0.217800
0.031187	30.540000	0.222300
0.031196	30.540000	0.222300
0.031209	35.040000	0.244500
0.031220	35.040000	0.244500
0.031232	35.040000	0.244500
0.031243	29.750000	0.218100
0.031259	29.750000	0.218100
0.031267	29.750000	0.218100
0.031278	29.030000	0.214600
0.031290	29.030000	0.214600
0.031301	29.030000	0.214600
0.031313	30.180000	0.222700
0.031324	30.180000	0.222700
0.031336	30.180000	0.222700
0.031348	30.180000	0.222700
0.031360	29.250000	0.215300
0.031371	29.250000	0.215300
0.031382	29.180000	0.214600
0.031394	29.180000	0.214600
0.031406	29.180000	0.214600
0.031418	29.540000	0.216300
0.031428	29.540000	0.216300
0.031440	29.540000	0.216300
0.031452	29.680000	0.222200
0.031464	29.680000	0.222200
0.031476	29.680000	0.222200
0.031486	29.390000	0.216900
0.031498	29.390000	0.216900
0.031510	29.390000	0.216900
0.031522	28.100000	0.209900
0.031533	28.100000	0.209900
0.031544	28.100000	0.209900
0.031558	28.180000	0.210400
0.031567	28.180000	0.210400
0.031578	28.180000	0.210400
0.031591	30.110000	0.219000
0.031603	30.110000	0.219000
0.031614	30.110000	0.219000
0.031627	29.890000	0.219500
0.031639	29.890000	0.219500
0.031656	29.890000	0.219500
0.031661	29.960000	0.219900
0.031671	29.960000	0.219900
0.031682	29.960000	0.219900
0.031695	30.540000	0.221800
0.031707	30.540000	0.221800
0.031719	30.540000	0.221800
0.031731	28.890000	0.214300
0.031741	28.890000	0.214300
0.031753	28.890000	0.214300
0.031765	29.390000	0.217100
0.031777	29.390000	0.217100
0.031789	29.390000	0.217100
0.031799	29.320000	0.215900
0.031811	29.320000	0.215900
0.031823	29.610000	0.214900
0.031835	29.610000	0.214900
0.031847	29.610000	0.214900
0.031866	29.610000	0.214900
0.031869	28.960000	0.215300
0.031885	28.960000	0.215300
0.031898	28.960000	0.215300
0.031906	28.460000	0.211600
0.031917	28.460000	0.211600
0.031932	28.460000	0.211600
0.031943	29.110000	0.213400
0.031951	29.110000	0.213400
0.031963	29.110000	0.213400
0.031973	28.030000	0.207900
0.031985	28.030000	0.207900
0.031997	28.030000	0.207900
0.032008	29.960000	0.219400
0.032020	29.960000	0.219400
0.032032	29.960000	0.219400
0.032043	30.390000	0.220900
0.032054	30.390000	0.220900
0.032066	30.390000	0.220900
0.032078	30.040000	0.220100
0.032090	30.040000	0.220100
0.032101	30.040000	0.220100
0.032112	30.110000	0.220600
0.032124	30.110000	0.220600
0.032136	30.110000	0.220600
0.032148	28.820000	0.213600
0.032160	28.820000	0.213600
0.032170	28.820000	0.213600
0.032181	29.610000	0.217800
0.032194	29.610000	0.217800
0.032206	29.610000	0.217800
0.032216	29.110000	0.216100
0.032228	29.110000	0.216100
0.032239	29.110000	0.216100
0.032252	30.180000	0.220800
0.032262	30.180000	0.220800
0.032275	30.180000	0.220800
0.032287	51.060000	0.330900
0.032298	51.060000	0.330900
0.032310	92.840000	0.330900
0.032321	92.840000	0.511600
0.032333	92.840000	0.511600
0.032344	92.840000	0.511600
0.032356	65.730000	0.384700
0.032368	65.730000	0.384700
0.032391	65.730000	0.384700
0.032393	80.180000	0.437800
0.032407	80.180000	0.437800
0.032419	80.180000	0.437800
0.032431	84.470000	0.452200
0.032443	84.470000	0.452200
0.032454	84.470000	0.452200
0.032465	84.400000	0.457400
0.032477	84.400000	0.457400
0.032488	71.230000	0.397900
0.032500	71.230000	0.397900
0.032512	71.230000	0.397900
0.032523	29.960000	0.219800
0.032536	29.960000	0.219800
0.032546	29.960000	0.219800
0.032558	28.890000	0.213200
0.032570	28.890000	0.213200
0.032582	28.890000	0.213200
0.032592	28.890000	0.213200
0.032604	29.390000	0.215900
0.032616	29.390000	0.215900
0.032628	29.390000	0.215900
0.032641	30.320000	0.220400
0.032650	30.320000	0.220400
0.032662	29.390000	0.217400
0.032674	29.390000	0.217400
0.032686	29.390000	0.217400
0.032696	29.110000	0.215400
0.032708	29.110000	0.215400
0.032720	29.110000	0.215400
0.032736	29.390000	0.217300
0.032744	29.390000	0.217300
0.032755	29.390000	0.217300
0.032768	29.390000	0.217300
0.032778	29.110000	0.214400
0.032790	29.110000	0.214400
0.032802	29.110000	0.214400
0.032813	29.820000	0.218500
0.032826	29.820000	0.218500
0.032836	28.960000	0.215200
0.032849	28.960000	0.215200
0.032859	28.960000	0.215200
0.032871	29.320000	0.215300
0.032883	29.320000	0.215300
0.032894	29.320000	0.215300
0.032906	29.320000	0.215300
0.032917	28.960000	0.215400
0.032928	28.960000	0.215400
0.032941	28.960000	0.215400
0.032952	29.460000	0.217600
0.032963	29.460000	0.217600
0.032975	63.800000	0.217600
0.032987	63.800000	0.391500
0.033000	63.800000	0.391500
0.033011	28.960000	0.214600
0.033021	28.960000	0.214600
0.033033	28.960000	0.214600
0.033045	29.250000	0.216100
0.033057	29.250000	0.216100
0.033067	29.250000	0.216100
0.033079	29.250000	0.216100
0.033091	29.540000	0.216200
0.033103	29.540000	0.216200
0.033115	29.540000	0.216200
0.033126	29.180000	0.215600
0.033138	29.180000	0.215600
0.033149	29.680000	0.217500
0.033161	29.680000	0.217500
0.033172	29.680000	0.217500
0.033184	30.680000	0.224300
0.033195	30.680000	0.224300
0.033207	30.680000	0.224300
0.033219	33.330000	0.238800
0.033230	33.330000	0.238800
0.033246	33.330000	0.238800
0.033263	33.330000	0.238800
0.033267	38.830000	0.267600
0.033284	38.830000	0.267600
0.033295	30.680000	0.222800
0.033307	30.680000	0.222800
0.033319	30.680000	0.222800
0.033336	42.200000	0.289600
0.033341	42.200000	0.289600
0.033352	42.200000	0.289600
0.033363	34.400000	0.250800
0.033374	34.400000	0.250800
0.033386	34.400000	0.250800
0.033397	59.930000	0.364700
0.033411	59.930000	0.364700
0.033421	59.930000	0.364700
0.033432	73.170000	0.411900
0.033443	73.170000	0.411900
0.033455	31.390000	0.411900
0.033467	31.390000	0.225200
0.033479	31.390000	0.225200
0.033491	31.390000	0.225200
0.033501	29.030000	0.215900
0.033513	29.030000	0.215900
0.033525	29.030000	0.215900
0.033537	28.180000	0.209700
0.033547	28.180000	0.209700
0.033559	28.180000	0.209700
0.033571	29.460000	0.216100
0.033595	29.460000	0.216100
0.033609	29.460000	0.216100
0.033623	30.610000	0.221900
0.033635	30.460000	0.220500
0.033647	30.460000	0.220500
0.033658	30.460000	0.220500
0.033670	30.180000	0.220800
0.033681	30.180000	0.220800
0.033693	30.180000	0.220800
0.033704	29.540000	0.216900
0.033716	29.540000	0.216900
0.033728	29.540000	0.216900
0.033739	29.540000	0.216900
0.033751	30.320000	0.224900
0.033761	30.320000	0.224900
0.033774	30.320000	0.224900
0.033786	30.460000	0.223300
0.033798	30.460000	0.223300
0.033812	29.390000	0.216200
0.033822	29.390000	0.216200
0.033834	29.390000	0.216200
0.033842	30.680000	0.222000
0.033854	30.680000	0.222000
0.033866	30.680000	0.222000
0.033878	29.680000	0.217900
0.033890	29.680000	0.217900
0.033902	29.680000	0.217900
0.033914	29.680000	0.217900
0.033926	33.040000	0.237600
0.033936	33.040000	0.237600
0.033948	29.390000	0.237600
0.033959	29.390000	0.216700
0.033972	29.390000	0.216700
0.033981	30.540000	0.222900
0.033994	30.540000	0.222900
0.034006	30.540000	0.222900
0.034017	31.970000	0.229800
0.034029	31.970000	0.229800
0.034040	31.970000	0.229800
0.034052	31.970000	0.229800
0.034065	28.960000	0.215300
0.034075	28.960000	0.215300
0.034086	28.960000	0.215300
0.034099	61.220000	0.378100
0.034112	61.220000	0.378100
0.034122	29.320000	0.215800
0.034133	29.320000	0.215800
0.034145	29.320000	0.215800
0.034157	31.470000	0.225000
0.034168	31.470000	0.225000
0.034180	31.470000	0.225000
0.034191	29.390000	0.215000
0.034205	29.390000	0.215000
0.034219	29.390000	0.215000
0.034227	29.390000	0.215000
0.034237	30.820000	0.224100
0.034251	30.820000	0.224100
0.034261	30.820000	0.224100
0.034271	30.750000	0.224300
0.034283	30.750000	0.224300
0.034295	31.040000	0.223100
0.034311	31.040000	0.223100
0.034319	31.040000	0.223100
0.034331	32.900000	0.241800
0.034342	32.900000	0.241800
0.034353	32.900000	0.241800
0.034365	32.610000	0.231400
0.034377	32.610000	0.231400
0.034388	32.610000	0.231400
0.034402	32.610000	0.231400
0.034411	30.040000	0.220300
0.034435	30.040000	0.220300
0.034438	30.040000	0.220300
0.034451	29.180000	0.213600
0.034467	32.470000	0.232000
0.034477	32.470000	0.232000
0.034486	32.470000	0.232000
0.034499	32.470000	0.232000
0.034510	29.390000	0.216200
0.034522	29.390000	0.216200
0.034534	29.390000	0.216200
0.034544	29.540000	0.216600
0.034568	29.540000	0.216600
0.034570	29.540000	0.216600
0.034588	29.960000	0.218900
0.034595	29.960000	0.218900
0.034608	35.260000	0.251400
0.034619	35.260000	0.251400
0.034636	35.260000	0.251400
0.034643	29.030000	0.215100
0.034662	29.030000	0.215100
0.034666	29.030000	0.215100
0.034676	29.180000	0.216000
0.034698	29.180000	0.216000
0.034726	29.180000	0.216000
0.034747	29.250000	0.217000
0.034774	28.820000	0.213800
0.034776	29.180000	0.216100
0.034791	29.180000	0.216100
0.034803	29.180000	0.216100
0.034816	29.110000	0.215700
0.034825	29.110000	0.215700
0.034837	29.110000	0.215700
0.034849	29.110000	0.215700
0.034871	29.110000	0.215100
0.034874	29.110000	0.215100
0.034888	29.180000	0.216400
0.034900	29.180000	0.216400
0.034911	29.180000	0.216400
0.034922	29.180000	0.216400
0.034934	28.390000	0.212000
0.034946	28.390000	0.212000
0.034958	28.320000	0.211000
0.034968	28.320000	0.211000
0.034980	28.320000	0.211000
0.034992	29.960000	0.220300
0.035004	29.960000	0.220300
0.035016	29.960000	0.220300
0.035027	29.960000	0.220600
0.035038	29.960000	0.220600
0.035050	29.960000	0.220600
0.035062	39.620000	0.270900
0.035074	39.620000	0.270900
0.035085	39.620000	0.270900
0.035096	28.890000	0.270900
0.035108	28.890000	0.214800
0.035132	28.890000	0.214800
0.035134	28.890000	0.215200
0.035149	28.890000	0.215200
0.035160	28.890000	0.215200
0.035175	47.990000	0.313900
0.035183	47.990000	0.313900
0.035195	47.990000	0.313900
0.035207	34.540000	0.253100
0.035220	34.540000	0.253100
0.035229	34.540000	0.253100
0.035241	29.250000	0.215000
0.035253	29.250000	0.215000
0.035265	28.890000	0.214400
0.035277	28.890000	0.214400
0.035287	28.890000	0.214400
0.035299	29.320000	0.215500
0.035311	29.320000	0.215500
0.035323	29.320000	0.215500
0.035334	29.320000	0.215500
0.035345	30.460000	0.222600
0.035358	30.460000	0.222600
0.035369	30.460000	0.222600
0.035382	32.180000	0.233500
0.035392	32.180000	0.233500
0.035403	32.180000	0.233500
0.035417	29.820000	0.217100
0.035428	29.820000	0.217100
0.035441	31.390000	0.225100
0.035451	31.390000	0.225100
0.035463	31.390000	0.225100
0.035476	30.110000	0.218100
0.035485	30.110000	0.218100
0.035496	30.110000	0.218100
0.035509	30.110000	0.218100
0.035518	33.180000	0.239200
0.035542	33.180000	0.239200
0.035547	33.180000	0.239200
0.035562	30.820000	0.223200
0.035571	30.820000	0.223200
0.035583	35.830000	0.248100
0.035595	35.830000	0.248100
0.035608	35.830000	0.248100
0.035619	29.960000	0.221000
0.035642	29.960000	0.221000
0.035646	29.960000	0.221000
0.035661	30.890000	0.221900
0.035673	30.890000	0.221900
0.035684	29.460000	0.217000
0.035695	29.460000	0.217000
0.035707	29.460000	0.217000
0.035719	29.460000	0.217000
0.035741	30.040000	0.223700
0.035744	30.040000	0.223700
0.035758	29.250000	0.223700
0.035771	29.250000	0.217000
0.035782	29.250000	0.217000
0.035792	38.190000	0.263200
0.035804	38.190000	0.263200
0.035816	38.190000	0.263200
0.035838	28.890000	0.214500
0.035841	28.890000	0.214500
0.035855	28.890000	0.214500
0.035867	30.610000	0.226200
0.035879	30.610000	0.226200
0.035889	30.610000	0.226200
0.035901	59.430000	0.362000
0.035913	59.430000	0.362000
0.035925	29.250000	0.215800
0.035936	29.250000	0.215800
0.035950	29.250000	0.215800
0.035959	29.390000	0.217100
0.035971	29.390000	0.217100
0.035983	29.390000	0.217100
0.035994	29.390000	0.217100
0.036006	29.610000	0.217400
0.036016	29.610000	0.217400
0.036029	29.610000	0.217400
0.036045	29.030000	0.215300
0.036056	29.030000	0.215300
0.036062	29.030000	0.215300
0.036104	29.030000	0.215000
0.036108	29.960000	0.219800
0.036124	29.960000	0.219800
0.036134	53.420000	0.344000
0.036145	53.420000	0.344000
0.036157	53.420000	0.344000
0.036170	53.420000	0.344000
0.036181	31.610000	0.227800
0.036192	31.610000	0.227800
0.036203	31.610000	0.227800
0.036218	39.190000	0.269300
0.036228	39.190000	0.269300
0.036238	39.190000	0.269300
0.036250	29.110000	0.215700
0.036262	29.110000	0.215700
0.036273	29.030000	0.214800
0.036285	29.030000	0.214800
0.036298	29.030000	0.214800
0.036308	28.960000	0.215000
0.036320	28.960000	0.215000
0.036331	28.960000	0.215000
0.036342	28.960000	0.215000
0.036354	29.610000	0.217600
0.036367	29.610000	0.217600
0.036378	29.610000	0.217600
0.036391	28.820000	0.214000
0.036401	28.820000	0.214000
0.036411	28.750000	0.214300
0.036424	28.750000	0.214300
0.036438	28.750000	0.214300
0.036446	30.180000	0.225900
0.036459	30.180000	0.225900
0.036473	30.180000	0.225900
0.036482	29.030000	0.215500
0.036494	29.030000	0.215500
0.036505	29.030000	0.215500
0.036516	29.030000	0.215500
0.036528	28.960000	0.214300
0.036540	28.960000	0.214300
0.036551	28.960000	0.214300
0.036563	30.890000	0.223900
0.036574	30.890000	0.223900
0.036587	30.180000	0.222800
0.036598	30.180000	0.222800
0.036609	30.180000	0.222800
0.036621	28.890000	0.215100
0.036636	28.890000	0.215100
0.036650	28.890000	0.215100
0.036655	28.960000	0.215300
0.036667	28.960000	0.215300
0.036679	28.960000	0.215300
0.036691	28.960000	0.215300
0.036702	29.030000	0.214900
0.036713	29.030000	0.214900
0.036725	29.030000	0.214900
0.036737	28.820000	0.213800
0.036749	28.820000	0.213800
0.036759	28.960000	0.214400
0.036771	28.960000	0.214400
0.036783	28.960000	0.214400
0.036795	29.030000	0.215600
0.036807	29.030000	0.215600
0.036817	29.030000	0.215600
0.036830	28.960000	0.215100
0.036841	28.960000	0.215100
0.036864	28.960000	0.215100
0.036866	28.960000	0.215100
0.036880	29.030000	0.215800
0.036892	29.030000	0.215800
0.036904	29.030000	0.215800
0.036915	28.960000	0.215000
